Study Name	CuCrNb_TpC_Pi3
Sample Name	2024-04-11
Run Name	031-0203W_1000_spot00
Operator	Elena
Date	4/11/2024
Time	17:34
Sign	FIX
Grating Spacing	03.40um
Channel	3
Number Traces	1000
Files in Batch	6
Batch Number	4
dt	50.000001E-12
time stamp (ms)	5:35:24 PM
	
Time	Amplitude
0.000000E+0	1.062214E-3
5.000000E-11	1.499090E-3
1.000000E-10	1.610451E-3
1.500000E-10	1.507656E-3
2.000000E-10	1.447693E-3
2.500000E-10	1.387729E-3
3.000000E-10	1.096479E-3
3.500000E-10	6.339037E-4
4.000000E-10	2.398585E-4
4.500000E-10	-1.798853E-4
5.000000E-10	-5.824968E-4
5.500000E-10	-5.482320E-4
6.000000E-10	-3.255108E-4
6.500000E-10	-4.711362E-4
7.000000E-10	-6.081954E-4
7.500000E-10	-1.027895E-4
8.000000E-10	6.596023E-4
8.500000E-10	1.182141E-3
9.000000E-10	1.670414E-3
9.500000E-10	2.321445E-3
1.000000E-9	2.963910E-3
1.050000E-9	3.426485E-3
1.100000E-9	3.589243E-3
1.150000E-9	3.520713E-3
1.200000E-9	3.546412E-3
1.250000E-9	3.597809E-3
1.300000E-9	3.297992E-3
1.350000E-9	2.775454E-3
1.400000E-9	2.467071E-3
1.450000E-9	2.218651E-3
1.500000E-9	1.764642E-3
1.550000E-9	1.353465E-3
1.600000E-9	1.233538E-3
1.650000E-9	1.156442E-3
1.700000E-9	9.936841E-4
1.750000E-9	9.251545E-4
1.800000E-9	9.936841E-4
1.850000E-9	1.087912E-3
1.900000E-9	1.139310E-3
1.950000E-9	1.113611E-3
2.000000E-9	9.508531E-4
2.050000E-9	7.452643E-4
2.100000E-9	6.167713E-4
2.150000E-9	6.167713E-4
2.200000E-9	7.109995E-4
2.250000E-9	8.309263E-4
2.300000E-9	9.594193E-4
2.350000E-9	1.062214E-3
2.400000E-9	1.019383E-3
2.450000E-9	8.309263E-4
2.500000E-9	7.195657E-4
2.550000E-9	7.281319E-4
2.600000E-9	5.739403E-4
2.650000E-9	1.027993E-4
2.700000E-9	-5.054010E-4
2.750000E-9	-1.096469E-3
2.800000E-9	-1.653272E-3
2.850000E-9	-1.995920E-3
2.900000E-9	-2.013052E-3
2.950000E-9	-1.850294E-3
3.000000E-9	-1.567610E-3
3.050000E-9	-1.087903E-3
3.100000E-9	-5.310996E-4
3.150000E-9	2.570346E-5
3.200000E-9	8.480587E-4
3.250000E-9	1.816039E-3
3.300000E-9	2.407107E-3
3.350000E-9	2.604130E-3
3.400000E-9	2.732623E-3
3.450000E-9	2.706924E-3
3.500000E-9	2.398541E-3
3.550000E-9	2.021628E-3
3.600000E-9	1.567620E-3
3.650000E-9	1.045081E-3
3.700000E-9	7.366981E-4
3.750000E-9	6.253375E-4
3.800000E-9	4.625797E-4
3.850000E-9	4.454473E-4
3.900000E-9	8.137939E-4
3.950000E-9	1.276369E-3
4.000000E-9	1.610451E-3
4.050000E-9	1.884569E-3
4.100000E-9	2.073025E-3
4.150000E-9	2.192952E-3
4.200000E-9	2.312879E-3
4.250000E-9	2.321445E-3
4.300000E-9	2.338578E-3
4.350000E-9	2.449938E-3
4.400000E-9	2.407107E-3
4.450000E-9	2.235783E-3
4.500000E-9	2.227217E-3
4.550000E-9	2.321445E-3
4.600000E-9	2.287180E-3
4.650000E-9	2.295747E-3
4.700000E-9	2.304313E-3
4.750000E-9	2.158687E-3
4.800000E-9	2.013062E-3
4.850000E-9	1.953099E-3
4.900000E-9	1.687546E-3
4.950000E-9	1.190707E-3
5.000000E-9	5.568079E-4
5.050000E-9	-1.113557E-4
5.100000E-9	-6.338940E-4
5.150000E-9	-9.851082E-4
5.200000E-9	-1.310624E-3
5.250000E-9	-1.499080E-3
5.300000E-9	-1.421984E-3
5.350000E-9	-1.216396E-3
5.400000E-9	-9.679758E-4
5.450000E-9	-6.595926E-4
5.500000E-9	-4.625700E-4
5.550000E-9	-2.912460E-4
5.600000E-9	1.456303E-4
5.650000E-9	7.795291E-4
5.700000E-9	1.310634E-3
5.750000E-9	1.661848E-3
5.800000E-9	2.013062E-3
5.850000E-9	2.441372E-3
5.900000E-9	2.775454E-3
5.950000E-9	2.938212E-3
6.000000E-9	3.041006E-3
6.050000E-9	3.135234E-3
6.100000E-9	3.160933E-3
6.150000E-9	3.100969E-3
6.200000E-9	2.792586E-3
6.250000E-9	2.175820E-3
6.300000E-9	1.824606E-3
6.350000E-9	1.918834E-3
6.400000E-9	1.764642E-3
6.450000E-9	1.387729E-3
6.500000E-9	1.636149E-3
6.550000E-9	2.304313E-3
6.600000E-9	2.672659E-3
6.650000E-9	2.981043E-3
6.700000E-9	3.640640E-3
6.750000E-9	4.291671E-3
6.800000E-9	4.779945E-3
6.850000E-9	5.276784E-3
6.900000E-9	5.636565E-3
6.950000E-9	5.568035E-3
7.000000E-9	5.079762E-3
7.050000E-9	4.437297E-3
7.100000E-9	3.837663E-3
7.150000E-9	3.203764E-3
7.200000E-9	2.398541E-3
7.250000E-9	1.670414E-3
7.300000E-9	1.319200E-3
7.350000E-9	1.130743E-3
7.400000E-9	9.080221E-4
7.450000E-9	8.480587E-4
7.500000E-9	9.165883E-4
7.550000E-9	9.765517E-4
7.600000E-9	1.139310E-3
7.650000E-9	1.516222E-3
7.700000E-9	2.013062E-3
7.750000E-9	2.501335E-3
7.800000E-9	3.049572E-3
7.850000E-9	3.700603E-3
7.900000E-9	4.094649E-3
7.950000E-9	3.957589E-3
8.000000E-9	3.726302E-3
8.050000E-9	3.692037E-3
8.100000E-9	3.417919E-3
8.150000E-9	2.843983E-3
8.200000E-9	2.535600E-3
8.250000E-9	2.287180E-3
8.300000E-9	1.661848E-3
8.350000E-9	1.233538E-3
8.400000E-9	1.267803E-3
8.450000E-9	1.096479E-3
8.500000E-9	9.851179E-4
8.550000E-9	1.559053E-3
8.600000E-9	2.098724E-3
8.650000E-9	2.038761E-3
8.700000E-9	2.295747E-3
8.750000E-9	2.955344E-3
8.800000E-9	2.835417E-3
8.850000E-9	2.167254E-3
8.900000E-9	2.201518E-3
8.950000E-9	2.389975E-3
9.000000E-9	1.721811E-3
9.050000E-9	8.737573E-4
9.100000E-9	6.424699E-4
9.150000E-9	3.854839E-4
9.200000E-9	-3.426432E-4
9.250000E-9	-9.422772E-4
9.300000E-9	-1.164998E-3
9.350000E-9	-1.122167E-3
9.400000E-9	-7.795194E-4
9.450000E-9	-4.797024E-4
9.500000E-9	-5.567982E-4
9.550000E-9	-3.169446E-4
9.600000E-9	5.396755E-4
9.650000E-9	1.062214E-3
9.700000E-9	1.190707E-3
9.750000E-9	1.858870E-3
9.800000E-9	2.544166E-3
9.850000E-9	2.518468E-3
9.900000E-9	2.518468E-3
9.950000E-9	2.818285E-3
1.000000E-8	2.672659E-3
1.005000E-8	2.415673E-3
1.010000E-8	2.509902E-3
1.015000E-8	2.064459E-3
1.020000E-8	1.062214E-3
1.025000E-8	7.452643E-4
1.030000E-8	7.709629E-4
1.035000E-8	2.227261E-4
1.040000E-8	-1.456205E-4
1.045000E-8	1.541965E-4
1.050000E-8	2.912557E-4
1.055000E-8	2.484247E-4
1.060000E-8	6.082051E-4
1.065000E-8	9.679855E-4
1.070000E-8	1.010817E-3
1.075000E-8	1.319200E-3
1.080000E-8	1.756076E-3
1.085000E-8	1.764642E-3
1.090000E-8	1.576186E-3
1.095000E-8	1.490524E-3
1.100000E-8	1.293501E-3
1.105000E-8	9.165883E-4
1.110000E-8	5.568079E-4
1.115000E-8	1.798951E-4
1.120000E-8	-1.199219E-4
1.125000E-8	-1.970177E-4
1.130000E-8	-4.283052E-4
1.135000E-8	-7.795194E-4
1.140000E-8	-6.681588E-4
1.145000E-8	-2.312826E-4
1.150000E-8	-2.055839E-4
1.155000E-8	-2.569812E-4
1.160000E-8	3.340867E-4
1.165000E-8	1.147876E-3
1.170000E-8	1.670414E-3
1.175000E-8	2.330011E-3
1.180000E-8	3.126668E-3
1.185000E-8	3.537846E-3
1.190000E-8	3.820530E-3
1.195000E-8	4.394466E-3
1.200000E-8	4.762812E-3
1.205000E-8	4.874173E-3
1.210000E-8	5.268218E-3
1.215000E-8	5.730793E-3
1.220000E-8	6.193368E-3
1.225000E-8	7.401202E-3
1.230000E-8	9.534186E-3
1.235000E-8	1.235247E-2
1.240000E-8	1.632718E-2
1.245000E-8	2.159540E-2
1.250000E-8	2.764313E-2
1.255000E-8	3.459032E-2
1.260000E-8	4.253119E-2
1.265000E-8	5.066908E-2
1.270000E-8	5.870418E-2
1.275000E-8	6.690203E-2
1.280000E-8	7.460304E-2
1.285000E-8	8.123328E-2
1.290000E-8	8.726389E-2
1.295000E-8	9.288332E-2
1.300000E-8	9.780888E-2
1.305000E-8	1.023490E-1
1.310000E-8	1.067863E-1
1.315000E-8	1.109409E-1
1.320000E-8	1.150869E-1
1.325000E-8	1.196270E-1
1.330000E-8	1.240729E-1
1.335000E-8	1.279790E-1
1.340000E-8	1.315511E-1
1.345000E-8	1.347378E-1
1.350000E-8	1.370849E-1
1.355000E-8	1.383870E-1
1.360000E-8	1.387896E-1
1.365000E-8	1.382156E-1
1.370000E-8	1.364767E-1
1.375000E-8	1.336499E-1
1.380000E-8	1.298893E-1
1.385000E-8	1.254177E-1
1.390000E-8	1.205950E-1
1.395000E-8	1.155324E-1
1.400000E-8	1.101785E-1
1.405000E-8	1.049702E-1
1.410000E-8	1.004301E-1
1.415000E-8	9.642972E-2
1.420000E-8	9.275482E-2
1.425000E-8	8.977379E-2
1.430000E-8	8.764080E-2
1.435000E-8	8.602179E-2
1.440000E-8	8.483965E-2
1.445000E-8	8.429998E-2
1.450000E-8	8.432568E-2
1.455000E-8	8.483965E-2
1.460000E-8	8.587616E-2
1.465000E-8	8.731529E-2
1.470000E-8	8.913989E-2
1.475000E-8	9.134140E-2
1.480000E-8	9.357718E-2
1.485000E-8	9.577013E-2
1.490000E-8	9.839995E-2
1.495000E-8	1.015180E-1
1.500000E-8	1.045077E-1
1.505000E-8	1.070861E-1
1.510000E-8	1.094846E-1
1.515000E-8	1.118146E-1
1.520000E-8	1.138619E-1
1.525000E-8	1.154039E-1
1.530000E-8	1.165346E-1
1.535000E-8	1.174512E-1
1.540000E-8	1.179652E-1
1.545000E-8	1.178110E-1
1.550000E-8	1.170314E-1
1.555000E-8	1.156865E-1
1.560000E-8	1.138020E-1
1.565000E-8	1.116090E-1
1.570000E-8	1.091248E-1
1.575000E-8	1.060239E-1
1.580000E-8	1.026231E-1
1.585000E-8	9.935080E-2
1.590000E-8	9.603568E-2
1.595000E-8	9.261776E-2
1.600000E-8	8.926838E-2
1.605000E-8	8.587616E-2
1.610000E-8	8.262101E-2
1.615000E-8	8.008541E-2
1.620000E-8	7.820941E-2
1.625000E-8	7.654757E-2
1.630000E-8	7.531404E-2
1.635000E-8	7.473154E-2
1.640000E-8	7.468871E-2
1.645000E-8	7.533117E-2
1.650000E-8	7.660754E-2
1.655000E-8	7.807236E-2
1.660000E-8	7.975133E-2
1.665000E-8	8.188431E-2
1.670000E-8	8.426572E-2
1.675000E-8	8.691267E-2
1.680000E-8	8.987658E-2
1.685000E-8	9.265203E-2
1.690000E-8	9.511909E-2
1.695000E-8	9.779175E-2
1.700000E-8	1.004987E-1
1.705000E-8	1.026145E-1
1.710000E-8	1.042592E-1
1.715000E-8	1.058011E-1
1.720000E-8	1.070946E-1
1.725000E-8	1.079427E-1
1.730000E-8	1.081569E-1
1.735000E-8	1.077114E-1
1.740000E-8	1.070175E-1
1.745000E-8	1.062809E-1
1.750000E-8	1.051073E-1
1.755000E-8	1.032741E-1
1.760000E-8	1.010212E-1
1.765000E-8	9.842565E-2
1.770000E-8	9.541035E-2
1.775000E-8	9.201813E-2
1.780000E-8	8.834323E-2
1.785000E-8	8.449701E-2
1.790000E-8	8.065935E-2
1.795000E-8	7.700158E-2
1.800000E-8	7.366076E-2
1.805000E-8	7.071399E-2
1.810000E-8	6.807560E-2
1.815000E-8	6.590835E-2
1.820000E-8	6.456346E-2
1.825000E-8	6.424651E-2
1.830000E-8	6.482901E-2
1.835000E-8	6.623387E-2
1.840000E-8	6.861527E-2
1.845000E-8	7.194752E-2
1.850000E-8	7.567382E-2
1.855000E-8	7.955431E-2
1.860000E-8	8.382028E-2
1.865000E-8	8.823187E-2
1.870000E-8	9.213806E-2
1.875000E-8	9.567590E-2
1.880000E-8	9.909381E-2
1.885000E-8	1.017922E-1
1.890000E-8	1.034883E-1
1.895000E-8	1.047132E-1
1.900000E-8	1.055013E-1
1.905000E-8	1.054242E-1
1.910000E-8	1.047218E-1
1.915000E-8	1.038395E-1
1.920000E-8	1.026402E-1
1.925000E-8	1.009098E-1
1.930000E-8	9.875116E-2
1.935000E-8	9.643829E-2
1.940000E-8	9.398836E-2
1.945000E-8	9.112725E-2
1.950000E-8	8.777786E-2
1.955000E-8	8.429142E-2
1.960000E-8	8.070218E-2
1.965000E-8	7.675316E-2
1.970000E-8	7.256429E-2
1.975000E-8	6.857244E-2
1.980000E-8	6.496607E-2
1.985000E-8	6.181371E-2
1.990000E-8	5.924385E-2
1.995000E-8	5.731645E-2
2.000000E-8	5.633134E-2
2.005000E-8	5.652836E-2
2.010000E-8	5.772763E-2
2.015000E-8	5.992058E-2
2.020000E-8	6.327853E-2
2.025000E-8	6.740744E-2
2.030000E-8	7.169054E-2
2.035000E-8	7.611070E-2
2.040000E-8	8.069361E-2
2.045000E-8	8.492532E-2
2.050000E-8	8.858308E-2
2.055000E-8	9.182111E-2
2.060000E-8	9.452803E-2
2.065000E-8	9.640402E-2
2.070000E-8	9.760329E-2
2.075000E-8	9.835712E-2
2.080000E-8	9.864837E-2
2.085000E-8	9.849418E-2
2.090000E-8	9.805730E-2
2.095000E-8	9.735487E-2
2.100000E-8	9.629266E-2
2.105000E-8	9.507626E-2
2.110000E-8	9.377420E-2
2.115000E-8	9.196673E-2
2.120000E-8	8.961959E-2
2.125000E-8	8.726389E-2
2.130000E-8	8.492532E-2
2.135000E-8	8.215843E-2
2.140000E-8	7.898894E-2
2.145000E-8	7.575092E-2
2.150000E-8	7.243580E-2
2.155000E-8	6.916351E-2
2.160000E-8	6.611394E-2
2.165000E-8	6.321856E-2
2.170000E-8	6.058874E-2
2.175000E-8	5.862708E-2
2.180000E-8	5.737642E-2
2.185000E-8	5.665685E-2
2.190000E-8	5.663972E-2
2.195000E-8	5.751347E-2
2.200000E-8	5.914962E-2
2.205000E-8	6.147963E-2
2.210000E-8	6.443496E-2
2.215000E-8	6.776722E-2
2.220000E-8	7.118513E-2
2.225000E-8	7.455165E-2
2.230000E-8	7.785820E-2
2.235000E-8	8.106196E-2
2.240000E-8	8.400873E-2
2.245000E-8	8.650150E-2
2.250000E-8	8.853169E-2
2.255000E-8	9.011643E-2
2.260000E-8	9.129857E-2
2.265000E-8	9.216376E-2
2.270000E-8	9.272056E-2
2.275000E-8	9.291758E-2
2.280000E-8	9.278909E-2
2.285000E-8	9.235221E-2
2.290000E-8	9.157269E-2
2.295000E-8	9.060471E-2
2.300000E-8	8.933691E-2
2.305000E-8	8.745235E-2
2.310000E-8	8.503668E-2
2.315000E-8	8.243255E-2
2.320000E-8	7.952861E-2
2.325000E-8	7.620492E-2
2.330000E-8	7.276131E-2
2.335000E-8	6.930057E-2
2.340000E-8	6.575416E-2
2.345000E-8	6.225058E-2
2.350000E-8	5.890977E-2
2.355000E-8	5.584307E-2
2.360000E-8	5.335030E-2
2.365000E-8	5.152570E-2
2.370000E-8	5.038640E-2
2.375000E-8	5.025790E-2
2.380000E-8	5.116592E-2
2.385000E-8	5.272497E-2
2.390000E-8	5.496931E-2
2.395000E-8	5.815594E-2
2.400000E-8	6.198503E-2
2.405000E-8	6.599401E-2
2.410000E-8	7.008009E-2
2.415000E-8	7.417473E-2
2.420000E-8	7.807236E-2
2.425000E-8	8.162733E-2
2.430000E-8	8.465976E-2
2.435000E-8	8.703260E-2
2.440000E-8	8.885720E-2
2.445000E-8	9.019353E-2
2.450000E-8	9.088739E-2
2.455000E-8	9.107585E-2
2.460000E-8	9.105015E-2
2.465000E-8	9.062184E-2
2.470000E-8	8.938831E-2
2.475000E-8	8.758084E-2
2.480000E-8	8.552495E-2
2.485000E-8	8.295509E-2
2.490000E-8	7.981129E-2
2.495000E-8	7.659040E-2
2.500000E-8	7.306969E-2
2.505000E-8	6.876090E-2
2.510000E-8	6.439213E-2
2.515000E-8	6.065727E-2
2.520000E-8	5.703377E-2
2.525000E-8	5.331604E-2
2.530000E-8	5.024934E-2
2.535000E-8	4.797929E-2
2.540000E-8	4.624892E-2
2.545000E-8	4.539230E-2
2.550000E-8	4.538373E-2
2.555000E-8	4.598337E-2
2.560000E-8	4.740536E-2
2.565000E-8	4.953834E-2
2.570000E-8	5.186835E-2
2.575000E-8	5.470376E-2
2.580000E-8	5.825017E-2
2.585000E-8	6.174518E-2
2.590000E-8	6.506030E-2
2.595000E-8	6.874376E-2
2.600000E-8	7.249576E-2
2.605000E-8	7.583658E-2
2.610000E-8	7.910030E-2
2.615000E-8	8.226979E-2
2.620000E-8	8.484822E-2
2.625000E-8	8.689554E-2
2.630000E-8	8.852312E-2
2.635000E-8	8.946540E-2
2.640000E-8	8.976522E-2
2.645000E-8	8.962816E-2
2.650000E-8	8.864305E-2
2.655000E-8	8.667282E-2
2.660000E-8	8.412009E-2
2.665000E-8	8.108766E-2
2.670000E-8	7.735279E-2
2.675000E-8	7.323245E-2
2.680000E-8	6.910354E-2
2.685000E-8	6.504316E-2
2.690000E-8	6.113698E-2
2.695000E-8	5.749634E-2
2.700000E-8	5.427545E-2
2.705000E-8	5.170559E-2
2.710000E-8	4.982959E-2
2.715000E-8	4.837334E-2
2.720000E-8	4.725973E-2
2.725000E-8	4.670293E-2
2.730000E-8	4.675433E-2
2.735000E-8	4.725117E-2
2.740000E-8	4.803926E-2
2.745000E-8	4.893871E-2
2.750000E-8	5.006088E-2
2.755000E-8	5.171416E-2
2.760000E-8	5.378718E-2
2.765000E-8	5.582593E-2
2.770000E-8	5.800175E-2
2.775000E-8	6.064014E-2
2.780000E-8	6.346698E-2
2.785000E-8	6.608824E-2
2.790000E-8	6.869237E-2
2.795000E-8	7.147638E-2
2.800000E-8	7.415760E-2
2.805000E-8	7.654757E-2
2.810000E-8	7.867199E-2
2.815000E-8	8.048802E-2
2.820000E-8	8.179865E-2
2.825000E-8	8.256961E-2
2.830000E-8	8.286943E-2
2.835000E-8	8.271524E-2
2.840000E-8	8.189288E-2
2.845000E-8	8.017107E-2
2.850000E-8	7.796100E-2
2.855000E-8	7.563099E-2
2.860000E-8	7.285554E-2
2.865000E-8	6.940336E-2
2.870000E-8	6.577129E-2
2.875000E-8	6.231911E-2
2.880000E-8	5.886693E-2
2.885000E-8	5.548329E-2
2.890000E-8	5.251938E-2
2.895000E-8	5.014654E-2
2.900000E-8	4.821915E-2
2.905000E-8	4.664297E-2
2.910000E-8	4.558076E-2
2.915000E-8	4.523811E-2
2.920000E-8	4.545226E-2
2.925000E-8	4.584631E-2
2.930000E-8	4.659157E-2
2.935000E-8	4.803069E-2
2.940000E-8	4.983816E-2
2.945000E-8	5.163706E-2
2.950000E-8	5.351306E-2
2.955000E-8	5.557751E-2
2.960000E-8	5.784756E-2
2.965000E-8	6.039172E-2
2.970000E-8	6.290161E-2
2.975000E-8	6.513739E-2
2.980000E-8	6.770725E-2
2.985000E-8	7.082535E-2
2.990000E-8	7.363506E-2
2.995000E-8	7.577661E-2
3.000000E-8	7.782394E-2
3.005000E-8	7.977703E-2
3.010000E-8	8.095060E-2
3.015000E-8	8.134464E-2
3.020000E-8	8.126755E-2
3.025000E-8	8.053086E-2
3.030000E-8	7.892041E-2
3.035000E-8	7.657327E-2
3.040000E-8	7.358367E-2
3.045000E-8	7.000299E-2
3.050000E-8	6.609681E-2
3.055000E-8	6.207069E-2
3.060000E-8	5.792465E-2
3.065000E-8	5.397563E-2
3.070000E-8	5.056629E-2
3.075000E-8	4.761095E-2
3.080000E-8	4.499826E-2
3.085000E-8	4.290810E-2
3.090000E-8	4.152894E-2
3.095000E-8	4.097214E-2
3.100000E-8	4.117773E-2
3.105000E-8	4.173453E-2
3.110000E-8	4.259972E-2
3.115000E-8	4.418447E-2
3.120000E-8	4.629175E-2
3.125000E-8	4.841617E-2
3.130000E-8	5.080614E-2
3.135000E-8	5.368438E-2
3.140000E-8	5.655406E-2
3.145000E-8	5.931238E-2
3.150000E-8	6.228485E-2
3.155000E-8	6.536868E-2
3.160000E-8	6.827262E-2
3.165000E-8	7.090245E-2
3.170000E-8	7.310396E-2
3.175000E-8	7.492856E-2
3.180000E-8	7.661610E-2
3.185000E-8	7.782394E-2
3.190000E-8	7.835504E-2
3.195000E-8	7.849210E-2
3.200000E-8	7.804666E-2
3.205000E-8	7.668463E-2
3.210000E-8	7.484290E-2
3.215000E-8	7.271848E-2
3.220000E-8	6.990020E-2
3.225000E-8	6.663648E-2
3.230000E-8	6.353551E-2
3.235000E-8	6.048595E-2
3.240000E-8	5.718796E-2
3.245000E-8	5.368438E-2
3.250000E-8	5.018937E-2
3.255000E-8	4.713124E-2
3.260000E-8	4.466417E-2
3.265000E-8	4.235130E-2
3.270000E-8	4.030398E-2
3.275000E-8	3.918181E-2
3.280000E-8	3.889055E-2
3.285000E-8	3.889055E-2
3.290000E-8	3.939596E-2
3.295000E-8	4.066376E-2
3.300000E-8	4.240270E-2
3.305000E-8	4.465561E-2
3.310000E-8	4.766234E-2
3.315000E-8	5.097746E-2
3.320000E-8	5.426688E-2
3.325000E-8	5.775333E-2
3.330000E-8	6.142823E-2
3.335000E-8	6.488897E-2
3.340000E-8	6.796424E-2
3.345000E-8	7.050840E-2
3.350000E-8	7.231587E-2
3.355000E-8	7.348944E-2
3.360000E-8	7.420900E-2
3.365000E-8	7.428610E-2
3.370000E-8	7.373786E-2
3.375000E-8	7.281271E-2
3.380000E-8	7.153634E-2
3.385000E-8	6.993447E-2
3.390000E-8	6.829832E-2
3.395000E-8	6.666218E-2
3.400000E-8	6.488897E-2
3.405000E-8	6.324426E-2
3.410000E-8	6.186510E-2
3.415000E-8	6.027179E-2
3.420000E-8	5.837009E-2
3.425000E-8	5.645983E-2
3.430000E-8	5.429258E-2
3.435000E-8	5.166276E-2
3.440000E-8	4.898154E-2
3.445000E-8	4.631745E-2
3.450000E-8	4.339638E-2
3.455000E-8	4.080938E-2
3.460000E-8	3.906188E-2
3.465000E-8	3.770842E-2
3.470000E-8	3.669761E-2
3.475000E-8	3.672331E-2
3.480000E-8	3.774268E-2
3.485000E-8	3.931886E-2
3.490000E-8	4.158034E-2
3.495000E-8	4.450142E-2
3.500000E-8	4.762808E-2
3.505000E-8	5.091750E-2
3.510000E-8	5.444677E-2
3.515000E-8	5.789895E-2
3.520000E-8	6.104275E-2
3.525000E-8	6.394669E-2
3.530000E-8	6.638806E-2
3.535000E-8	6.829832E-2
3.540000E-8	6.983167E-2
3.545000E-8	7.091101E-2
3.550000E-8	7.142498E-2
3.555000E-8	7.164771E-2
3.560000E-8	7.163914E-2
3.565000E-8	7.115087E-2
3.570000E-8	7.011436E-2
3.575000E-8	6.861527E-2
3.580000E-8	6.668788E-2
3.585000E-8	6.452063E-2
3.590000E-8	6.216492E-2
3.595000E-8	5.938947E-2
3.600000E-8	5.633991E-2
3.605000E-8	5.336743E-2
3.610000E-8	5.034356E-2
3.615000E-8	4.710554E-2
3.620000E-8	4.403028E-2
3.625000E-8	4.134905E-2
3.630000E-8	3.890769E-2
3.635000E-8	3.683467E-2
3.640000E-8	3.543838E-2
3.645000E-8	3.463315E-2
3.650000E-8	3.416201E-2
3.655000E-8	3.425624E-2
3.660000E-8	3.517282E-2
3.665000E-8	3.665478E-2
3.670000E-8	3.838515E-2
3.675000E-8	4.047530E-2
3.680000E-8	4.309656E-2
3.685000E-8	4.596624E-2
3.690000E-8	4.890444E-2
3.695000E-8	5.213390E-2
3.700000E-8	5.567174E-2
3.705000E-8	5.890977E-2
3.710000E-8	6.159099E-2
3.715000E-8	6.425507E-2
3.720000E-8	6.699626E-2
3.725000E-8	6.918921E-2
3.730000E-8	7.075682E-2
3.735000E-8	7.199892E-2
3.740000E-8	7.266708E-2
3.745000E-8	7.258999E-2
3.750000E-8	7.208458E-2
3.755000E-8	7.109090E-2
3.760000E-8	6.927487E-2
3.765000E-8	6.689346E-2
3.770000E-8	6.416941E-2
3.775000E-8	6.088856E-2
3.780000E-8	5.722222E-2
3.785000E-8	5.355589E-2
3.790000E-8	4.984673E-2
3.795000E-8	4.617183E-2
3.800000E-8	4.270251E-2
3.805000E-8	3.934456E-2
3.810000E-8	3.631213E-2
3.815000E-8	3.399069E-2
3.820000E-8	3.222605E-2
3.825000E-8	3.092399E-2
3.830000E-8	3.041858E-2
3.835000E-8	3.066700E-2
3.840000E-8	3.145509E-2
3.845000E-8	3.297988E-2
3.850000E-8	3.524992E-2
3.855000E-8	3.793114E-2
3.860000E-8	4.119486E-2
3.865000E-8	4.495542E-2
3.870000E-8	4.863032E-2
3.875000E-8	5.229666E-2
3.880000E-8	5.620285E-2
3.885000E-8	5.980922E-2
3.890000E-8	6.272172E-2
3.895000E-8	6.530015E-2
3.900000E-8	6.762159E-2
3.905000E-8	6.938623E-2
3.910000E-8	7.047414E-2
3.915000E-8	7.083392E-2
3.920000E-8	7.055123E-2
3.925000E-8	6.984880E-2
3.930000E-8	6.856387E-2
3.935000E-8	6.659365E-2
3.940000E-8	6.443496E-2
3.945000E-8	6.212209E-2
3.950000E-8	5.920958E-2
3.955000E-8	5.606579E-2
3.960000E-8	5.323037E-2
3.965000E-8	5.030930E-2
3.970000E-8	4.719977E-2
3.975000E-8	4.451855E-2
3.980000E-8	4.242840E-2
3.985000E-8	4.052670E-2
3.990000E-8	3.883916E-2
3.995000E-8	3.754566E-2
4.000000E-8	3.654342E-2
4.005000E-8	3.573819E-2
4.010000E-8	3.518139E-2
4.015000E-8	3.495867E-2
4.020000E-8	3.499293E-2
4.025000E-8	3.530988E-2
4.030000E-8	3.602088E-2
4.035000E-8	3.716875E-2
4.040000E-8	3.855647E-2
4.045000E-8	4.017548E-2
4.050000E-8	4.215428E-2
4.055000E-8	4.449285E-2
4.060000E-8	4.702845E-2
4.065000E-8	4.969253E-2
4.070000E-8	5.247655E-2
4.075000E-8	5.520060E-2
4.080000E-8	5.767623E-2
4.085000E-8	5.988631E-2
4.090000E-8	6.186510E-2
4.095000E-8	6.348412E-2
4.100000E-8	6.462342E-2
4.105000E-8	6.529158E-2
4.110000E-8	6.542864E-2
4.115000E-8	6.496607E-2
4.120000E-8	6.399809E-2
4.125000E-8	6.263606E-2
4.130000E-8	6.075150E-2
4.135000E-8	5.853285E-2
4.140000E-8	5.622854E-2
4.145000E-8	5.351306E-2
4.150000E-8	5.017224E-2
4.155000E-8	4.691708E-2
4.160000E-8	4.415020E-2
4.165000E-8	4.145185E-2
4.170000E-8	3.885629E-2
4.175000E-8	3.692889E-2
4.180000E-8	3.552404E-2
4.185000E-8	3.435903E-2
4.190000E-8	3.367374E-2
4.195000E-8	3.351955E-2
4.200000E-8	3.357951E-2
4.205000E-8	3.381936E-2
4.210000E-8	3.427337E-2
4.215000E-8	3.483018E-2
4.220000E-8	3.553260E-2
4.225000E-8	3.644062E-2
4.230000E-8	3.755423E-2
4.235000E-8	3.902761E-2
4.240000E-8	4.085221E-2
4.245000E-8	4.287384E-2
4.250000E-8	4.527237E-2
4.255000E-8	4.809922E-2
4.260000E-8	5.095177E-2
4.265000E-8	5.385571E-2
4.270000E-8	5.707660E-2
4.275000E-8	6.022896E-2
4.280000E-8	6.278169E-2
4.285000E-8	6.471765E-2
4.290000E-8	6.591692E-2
4.295000E-8	6.619960E-2
4.300000E-8	6.558284E-2
4.305000E-8	6.413515E-2
4.310000E-8	6.195933E-2
4.315000E-8	5.936377E-2
4.320000E-8	5.627138E-2
4.325000E-8	5.269070E-2
4.330000E-8	4.915286E-2
4.335000E-8	4.581204E-2
4.340000E-8	4.241126E-2
4.345000E-8	3.934456E-2
4.350000E-8	3.704882E-2
4.355000E-8	3.509573E-2
4.360000E-8	3.324543E-2
4.365000E-8	3.195193E-2
4.370000E-8	3.108675E-2
4.375000E-8	3.027296E-2
4.380000E-8	2.978468E-2
4.385000E-8	2.975042E-2
4.390000E-8	2.993031E-2
4.395000E-8	3.057277E-2
4.400000E-8	3.189197E-2
4.405000E-8	3.347672E-2
4.410000E-8	3.531845E-2
4.415000E-8	3.780265E-2
4.420000E-8	4.059523E-2
4.425000E-8	4.324218E-2
4.430000E-8	4.606046E-2
4.435000E-8	4.907577E-2
4.440000E-8	5.174842E-2
4.445000E-8	5.412126E-2
4.450000E-8	5.639987E-2
4.455000E-8	5.819020E-2
4.460000E-8	5.931238E-2
4.465000E-8	6.016900E-2
4.470000E-8	6.063157E-2
4.475000E-8	6.039172E-2
4.480000E-8	5.973212E-2
4.485000E-8	5.871274E-2
4.490000E-8	5.703377E-2
4.495000E-8	5.494361E-2
4.500000E-8	5.271640E-2
4.505000E-8	5.003518E-2
4.510000E-8	4.697705E-2
4.515000E-8	4.403884E-2
4.520000E-8	4.111777E-2
4.525000E-8	3.815386E-2
4.530000E-8	3.555830E-2
4.535000E-8	3.333109E-2
4.540000E-8	3.118954E-2
4.545000E-8	2.947630E-2
4.550000E-8	2.840553E-2
4.555000E-8	2.776306E-2
4.560000E-8	2.761744E-2
4.565000E-8	2.796865E-2
4.570000E-8	2.855972E-2
4.575000E-8	2.957053E-2
4.580000E-8	3.110388E-2
4.585000E-8	3.262866E-2
4.590000E-8	3.421341E-2
4.595000E-8	3.633783E-2
4.600000E-8	3.853934E-2
4.605000E-8	4.046674E-2
4.610000E-8	4.271108E-2
4.615000E-8	4.532377E-2
4.620000E-8	4.763665E-2
4.625000E-8	4.983816E-2
4.630000E-8	5.216817E-2
4.635000E-8	5.396707E-2
4.640000E-8	5.515777E-2
4.645000E-8	5.627994E-2
4.650000E-8	5.717083E-2
4.655000E-8	5.729932E-2
4.660000E-8	5.680248E-2
4.665000E-8	5.589446E-2
4.670000E-8	5.430972E-2
4.675000E-8	5.221100E-2
4.680000E-8	5.005231E-2
4.685000E-8	4.777370E-2
4.690000E-8	4.524668E-2
4.695000E-8	4.277961E-2
4.700000E-8	4.053527E-2
4.705000E-8	3.841085E-2
4.710000E-8	3.668048E-2
4.715000E-8	3.554117E-2
4.720000E-8	3.459032E-2
4.725000E-8	3.360521E-2
4.730000E-8	3.297131E-2
4.735000E-8	3.276572E-2
4.740000E-8	3.269719E-2
4.745000E-8	3.263723E-2
4.750000E-8	3.256870E-2
4.755000E-8	3.249160E-2
4.760000E-8	3.262010E-2
4.765000E-8	3.298844E-2
4.770000E-8	3.344245E-2
4.775000E-8	3.422198E-2
4.780000E-8	3.555830E-2
4.785000E-8	3.713448E-2
4.790000E-8	3.877063E-2
4.795000E-8	4.067232E-2
4.800000E-8	4.288240E-2
4.805000E-8	4.527237E-2
4.810000E-8	4.767091E-2
4.815000E-8	4.973536E-2
4.820000E-8	5.138008E-2
4.825000E-8	5.292199E-2
4.830000E-8	5.429258E-2
4.835000E-8	5.513207E-2
4.840000E-8	5.541476E-2
4.845000E-8	5.516634E-2
4.850000E-8	5.444677E-2
4.855000E-8	5.350449E-2
4.860000E-8	5.247655E-2
4.865000E-8	5.117449E-2
4.870000E-8	4.952978E-2
4.875000E-8	4.765378E-2
4.880000E-8	4.562359E-2
4.885000E-8	4.354200E-2
4.890000E-8	4.140902E-2
4.895000E-8	3.905331E-2
4.900000E-8	3.645775E-2
4.905000E-8	3.380223E-2
4.910000E-8	3.116384E-2
4.915000E-8	2.865395E-2
4.920000E-8	2.640103E-2
4.925000E-8	2.444794E-2
4.930000E-8	2.296599E-2
4.935000E-8	2.226356E-2
4.940000E-8	2.237492E-2
4.945000E-8	2.312875E-2
4.950000E-8	2.456787E-2
4.955000E-8	2.686361E-2
4.960000E-8	2.981895E-2
4.965000E-8	3.308267E-2
4.970000E-8	3.650915E-2
4.975000E-8	4.018405E-2
4.980000E-8	4.384182E-2
4.985000E-8	4.701131E-2
4.990000E-8	4.963257E-2
4.995000E-8	5.203111E-2
5.000000E-8	5.399277E-2
5.005000E-8	5.504641E-2
5.010000E-8	5.535479E-2
5.015000E-8	5.543189E-2
5.020000E-8	5.523487E-2
5.025000E-8	5.452387E-2
5.030000E-8	5.345310E-2
5.035000E-8	5.232236E-2
5.040000E-8	5.112309E-2
5.045000E-8	4.972680E-2
5.050000E-8	4.816775E-2
5.055000E-8	4.656587E-2
5.060000E-8	4.478410E-2
5.065000E-8	4.262542E-2
5.070000E-8	4.025258E-2
5.075000E-8	3.795684E-2
5.080000E-8	3.561827E-2
5.085000E-8	3.303984E-2
5.090000E-8	3.048711E-2
5.095000E-8	2.831986E-2
5.100000E-8	2.639247E-2
5.105000E-8	2.456787E-2
5.110000E-8	2.312018E-2
5.115000E-8	2.233209E-2
5.120000E-8	2.217790E-2
5.125000E-8	2.259764E-2
5.130000E-8	2.372838E-2
5.135000E-8	2.547588E-2
5.140000E-8	2.754034E-2
5.145000E-8	2.993031E-2
5.150000E-8	3.288565E-2
5.155000E-8	3.620077E-2
5.160000E-8	3.931886E-2
5.165000E-8	4.217998E-2
5.170000E-8	4.490403E-2
5.175000E-8	4.734539E-2
5.180000E-8	4.924709E-2
5.185000E-8	5.042066E-2
5.190000E-8	5.084040E-2
5.195000E-8	5.079757E-2
5.200000E-8	5.046349E-2
5.205000E-8	4.960687E-2
5.210000E-8	4.833051E-2
5.215000E-8	4.693422E-2
5.220000E-8	4.541800E-2
5.225000E-8	4.390178E-2
5.230000E-8	4.275391E-2
5.235000E-8	4.172597E-2
5.240000E-8	4.032111E-2
5.245000E-8	3.880489E-2
5.250000E-8	3.761419E-2
5.255000E-8	3.655198E-2
5.260000E-8	3.529275E-2
5.265000E-8	3.389646E-2
5.270000E-8	3.245734E-2
5.275000E-8	3.098395E-2
5.280000E-8	2.946773E-2
5.285000E-8	2.796865E-2
5.290000E-8	2.668372E-2
5.295000E-8	2.569004E-2
5.300000E-8	2.485055E-2
5.305000E-8	2.430232E-2
5.310000E-8	2.431945E-2
5.315000E-8	2.485912E-2
5.320000E-8	2.576714E-2
5.325000E-8	2.704350E-2
5.330000E-8	2.878244E-2
5.335000E-8	3.088972E-2
5.340000E-8	3.316833E-2
5.345000E-8	3.556687E-2
5.350000E-8	3.816243E-2
5.355000E-8	4.086935E-2
5.360000E-8	4.346491E-2
5.365000E-8	4.575208E-2
5.370000E-8	4.748245E-2
5.375000E-8	4.862176E-2
5.380000E-8	4.947838E-2
5.385000E-8	5.004375E-2
5.390000E-8	4.985529E-2
5.395000E-8	4.896441E-2
5.400000E-8	4.780797E-2
5.405000E-8	4.642025E-2
5.410000E-8	4.469844E-2
5.415000E-8	4.282244E-2
5.420000E-8	4.086935E-2
5.425000E-8	3.886486E-2
5.430000E-8	3.699742E-2
5.435000E-8	3.520709E-2
5.440000E-8	3.345958E-2
5.445000E-8	3.193480E-2
5.450000E-8	3.053851E-2
5.455000E-8	2.899659E-2
5.460000E-8	2.759174E-2
5.465000E-8	2.660662E-2
5.470000E-8	2.572430E-2
5.475000E-8	2.476489E-2
5.480000E-8	2.403676E-2
5.485000E-8	2.369412E-2
5.490000E-8	2.356562E-2
5.495000E-8	2.355706E-2
5.500000E-8	2.379691E-2
5.505000E-8	2.449934E-2
5.510000E-8	2.573287E-2
5.515000E-8	2.731762E-2
5.520000E-8	2.912509E-2
5.525000E-8	3.107818E-2
5.530000E-8	3.316833E-2
5.535000E-8	3.548121E-2
5.540000E-8	3.804250E-2
5.545000E-8	4.044960E-2
5.550000E-8	4.249693E-2
5.555000E-8	4.441575E-2
5.560000E-8	4.630888E-2
5.565000E-8	4.789363E-2
5.570000E-8	4.898154E-2
5.575000E-8	4.968397E-2
5.580000E-8	5.011228E-2
5.585000E-8	5.015511E-2
5.590000E-8	4.955547E-2
5.595000E-8	4.833051E-2
5.600000E-8	4.672006E-2
5.605000E-8	4.469844E-2
5.610000E-8	4.202578E-2
5.615000E-8	3.900192E-2
5.620000E-8	3.604658E-2
5.625000E-8	3.299701E-2
5.630000E-8	2.965619E-2
5.635000E-8	2.647813E-2
5.640000E-8	2.389114E-2
5.645000E-8	2.185238E-2
5.650000E-8	2.022480E-2
5.655000E-8	1.911976E-2
5.660000E-8	1.865719E-2
5.665000E-8	1.891418E-2
5.670000E-8	1.982219E-2
5.675000E-8	2.121848E-2
5.680000E-8	2.300882E-2
5.685000E-8	2.509897E-2
5.690000E-8	2.726622E-2
5.695000E-8	2.944204E-2
5.700000E-8	3.168638E-2
5.705000E-8	3.387076E-2
5.710000E-8	3.577246E-2
5.715000E-8	3.743430E-2
5.720000E-8	3.901905E-2
5.725000E-8	4.052670E-2
5.730000E-8	4.182876E-2
5.735000E-8	4.300233E-2
5.740000E-8	4.413307E-2
5.745000E-8	4.499826E-2
5.750000E-8	4.543513E-2
5.755000E-8	4.568355E-2
5.760000E-8	4.588914E-2
5.765000E-8	4.571782E-2
5.770000E-8	4.507535E-2
5.775000E-8	4.408167E-2
5.780000E-8	4.265112E-2
5.785000E-8	4.074085E-2
5.790000E-8	3.871923E-2
5.795000E-8	3.674044E-2
5.800000E-8	3.452179E-2
5.805000E-8	3.205473E-2
5.810000E-8	2.956196E-2
5.815000E-8	2.725765E-2
5.820000E-8	2.537309E-2
5.825000E-8	2.400250E-2
5.830000E-8	2.294886E-2
5.835000E-8	2.220360E-2
5.840000E-8	2.216077E-2
5.845000E-8	2.285463E-2
5.850000E-8	2.380548E-2
5.855000E-8	2.484199E-2
5.860000E-8	2.616118E-2
5.865000E-8	2.767740E-2
5.870000E-8	2.909939E-2
5.875000E-8	3.042715E-2
5.880000E-8	3.177204E-2
5.885000E-8	3.298844E-2
5.890000E-8	3.400782E-2
5.895000E-8	3.496724E-2
5.900000E-8	3.597805E-2
5.905000E-8	3.704026E-2
5.910000E-8	3.814530E-2
5.915000E-8	3.924177E-2
5.920000E-8	4.033824E-2
5.925000E-8	4.146898E-2
5.930000E-8	4.251406E-2
5.935000E-8	4.347347E-2
5.940000E-8	4.439862E-2
5.945000E-8	4.497256E-2
5.950000E-8	4.503252E-2
5.955000E-8	4.486120E-2
5.960000E-8	4.431296E-2
5.965000E-8	4.284814E-2
5.970000E-8	4.077512E-2
5.975000E-8	3.877063E-2
5.980000E-8	3.650058E-2
5.985000E-8	3.362234E-2
5.990000E-8	3.069270E-2
5.995000E-8	2.801148E-2
6.000000E-8	2.537309E-2
6.005000E-8	2.295742E-2
6.010000E-8	2.116709E-2
6.015000E-8	1.988216E-2
6.020000E-8	1.910263E-2
6.025000E-8	1.903410E-2
6.030000E-8	1.947098E-2
6.035000E-8	2.012201E-2
6.040000E-8	2.105573E-2
6.045000E-8	2.218646E-2
6.050000E-8	2.336860E-2
6.055000E-8	2.470493E-2
6.060000E-8	2.621258E-2
6.065000E-8	2.756604E-2
6.070000E-8	2.869678E-2
6.075000E-8	2.986178E-2
6.080000E-8	3.105248E-2
6.085000E-8	3.220035E-2
6.090000E-8	3.348528E-2
6.095000E-8	3.497580E-2
6.100000E-8	3.656911E-2
6.105000E-8	3.823096E-2
6.110000E-8	3.993563E-2
6.115000E-8	4.135762E-2
6.120000E-8	4.239413E-2
6.125000E-8	4.327645E-2
6.130000E-8	4.384182E-2
6.135000E-8	4.367049E-2
6.140000E-8	4.295950E-2
6.145000E-8	4.203435E-2
6.150000E-8	4.075799E-2
6.155000E-8	3.907045E-2
6.160000E-8	3.716018E-2
6.165000E-8	3.503576E-2
6.170000E-8	3.274859E-2
6.175000E-8	3.057277E-2
6.180000E-8	2.845692E-2
6.185000E-8	2.634964E-2
6.190000E-8	2.459357E-2
6.195000E-8	2.317158E-2
6.200000E-8	2.180955E-2
6.205000E-8	2.066168E-2
6.210000E-8	1.995925E-2
6.215000E-8	1.953951E-2
6.220000E-8	1.941102E-2
6.225000E-8	1.971083E-2
6.230000E-8	2.030190E-2
6.235000E-8	2.106429E-2
6.240000E-8	2.210080E-2
6.245000E-8	2.344570E-2
6.250000E-8	2.510754E-2
6.255000E-8	2.700067E-2
6.260000E-8	2.886810E-2
6.265000E-8	3.087259E-2
6.270000E-8	3.321973E-2
6.275000E-8	3.571249E-2
6.280000E-8	3.805963E-2
6.285000E-8	4.026971E-2
6.290000E-8	4.231704E-2
6.295000E-8	4.405597E-2
6.300000E-8	4.538373E-2
6.305000E-8	4.612899E-2
6.310000E-8	4.625749E-2
6.315000E-8	4.602620E-2
6.320000E-8	4.540943E-2
6.325000E-8	4.420160E-2
6.330000E-8	4.256545E-2
6.335000E-8	4.059523E-2
6.340000E-8	3.817099E-2
6.345000E-8	3.554117E-2
6.350000E-8	3.315120E-2
6.355000E-8	3.078693E-2
6.360000E-8	2.834556E-2
6.365000E-8	2.620401E-2
6.370000E-8	2.449934E-2
6.375000E-8	2.296599E-2
6.380000E-8	2.168962E-2
6.385000E-8	2.085014E-2
6.390000E-8	2.043039E-2
6.395000E-8	2.035330E-2
6.400000E-8	2.052462E-2
6.405000E-8	2.079017E-2
6.410000E-8	2.127845E-2
6.415000E-8	2.216077E-2
6.420000E-8	2.332577E-2
6.425000E-8	2.459357E-2
6.430000E-8	2.613548E-2
6.435000E-8	2.800291E-2
6.440000E-8	2.983608E-2
6.445000E-8	3.153219E-2
6.450000E-8	3.335679E-2
6.455000E-8	3.515569E-2
6.460000E-8	3.656911E-2
6.465000E-8	3.780265E-2
6.470000E-8	3.897622E-2
6.475000E-8	3.961012E-2
6.480000E-8	3.975574E-2
6.485000E-8	3.991850E-2
6.490000E-8	3.984140E-2
6.495000E-8	3.925890E-2
6.500000E-8	3.867640E-2
6.505000E-8	3.823096E-2
6.510000E-8	3.739147E-2
6.515000E-8	3.636353E-2
6.520000E-8	3.560113E-2
6.525000E-8	3.468455E-2
6.530000E-8	3.328826E-2
6.535000E-8	3.186627E-2
6.540000E-8	3.056421E-2
6.545000E-8	2.901373E-2
6.550000E-8	2.732618E-2
6.555000E-8	2.577570E-2
6.560000E-8	2.431088E-2
6.565000E-8	2.293172E-2
6.570000E-8	2.183525E-2
6.575000E-8	2.101289E-2
6.580000E-8	2.040469E-2
6.585000E-8	2.013914E-2
6.590000E-8	2.031903E-2
6.595000E-8	2.090153E-2
6.600000E-8	2.179242E-2
6.605000E-8	2.288889E-2
6.610000E-8	2.419952E-2
6.615000E-8	2.572430E-2
6.620000E-8	2.731762E-2
6.625000E-8	2.873104E-2
6.630000E-8	2.996457E-2
6.635000E-8	3.131803E-2
6.640000E-8	3.281712E-2
6.645000E-8	3.404209E-2
6.650000E-8	3.491584E-2
6.655000E-8	3.573819E-2
6.660000E-8	3.656055E-2
6.665000E-8	3.714305E-2
6.670000E-8	3.750283E-2
6.675000E-8	3.769129E-2
6.680000E-8	3.756279E-2
6.685000E-8	3.706595E-2
6.690000E-8	3.642349E-2
6.695000E-8	3.580672E-2
6.700000E-8	3.507860E-2
6.705000E-8	3.401639E-2
6.710000E-8	3.262866E-2
6.715000E-8	3.118097E-2
6.720000E-8	2.979325E-2
6.725000E-8	2.832843E-2
6.730000E-8	2.678651E-2
6.735000E-8	2.528743E-2
6.740000E-8	2.391684E-2
6.745000E-8	2.270900E-2
6.750000E-8	2.160396E-2
6.755000E-8	2.059315E-2
6.760000E-8	1.977936E-2
6.765000E-8	1.941958E-2
6.770000E-8	1.955664E-2
6.775000E-8	2.000208E-2
6.780000E-8	2.057602E-2
6.785000E-8	2.134698E-2
6.790000E-8	2.246058E-2
6.795000E-8	2.381404E-2
6.800000E-8	2.525316E-2
6.805000E-8	2.678651E-2
6.810000E-8	2.846549E-2
6.815000E-8	3.017016E-2
6.820000E-8	3.181487E-2
6.825000E-8	3.333966E-2
6.830000E-8	3.457319E-2
6.835000E-8	3.558400E-2
6.840000E-8	3.646632E-2
6.845000E-8	3.692033E-2
6.850000E-8	3.684323E-2
6.855000E-8	3.665478E-2
6.860000E-8	3.649202E-2
6.865000E-8	3.594378E-2
6.870000E-8	3.498437E-2
6.875000E-8	3.399069E-2
6.880000E-8	3.298844E-2
6.885000E-8	3.178917E-2
6.890000E-8	3.047855E-2
6.895000E-8	2.934781E-2
6.900000E-8	2.838839E-2
6.905000E-8	2.727479E-2
6.910000E-8	2.605839E-2
6.915000E-8	2.509041E-2
6.920000E-8	2.440511E-2
6.925000E-8	2.367698E-2
6.930000E-8	2.286319E-2
6.935000E-8	2.221216E-2
6.940000E-8	2.189521E-2
6.945000E-8	2.185238E-2
6.950000E-8	2.177529E-2
6.955000E-8	2.157826E-2
6.960000E-8	2.180099E-2
6.965000E-8	2.269187E-2
6.970000E-8	2.366842E-2
6.975000E-8	2.462783E-2
6.980000E-8	2.607552E-2
6.985000E-8	2.775449E-2
6.990000E-8	2.909082E-2
6.995000E-8	3.045285E-2
7.000000E-8	3.208043E-2
7.005000E-8	3.333966E-2
7.010000E-8	3.417058E-2
7.015000E-8	3.507860E-2
7.020000E-8	3.585812E-2
7.025000E-8	3.612367E-2
7.030000E-8	3.609797E-2
7.035000E-8	3.593522E-2
7.040000E-8	3.538698E-2
7.045000E-8	3.446183E-2
7.050000E-8	3.342532E-2
7.055000E-8	3.226888E-2
7.060000E-8	3.091542E-2
7.065000E-8	2.943347E-2
7.070000E-8	2.802005E-2
7.075000E-8	2.670942E-2
7.080000E-8	2.539879E-2
7.085000E-8	2.413956E-2
7.090000E-8	2.306022E-2
7.095000E-8	2.211793E-2
7.100000E-8	2.133841E-2
7.105000E-8	2.087584E-2
7.110000E-8	2.062742E-2
7.115000E-8	2.035330E-2
7.120000E-8	2.014771E-2
7.125000E-8	2.021624E-2
7.130000E-8	2.041326E-2
7.135000E-8	2.061028E-2
7.140000E-8	2.084157E-2
7.145000E-8	2.115852E-2
7.150000E-8	2.158683E-2
7.155000E-8	2.223786E-2
7.160000E-8	2.300882E-2
7.165000E-8	2.371125E-2
7.170000E-8	2.438798E-2
7.175000E-8	2.521890E-2
7.180000E-8	2.622114E-2
7.185000E-8	2.726622E-2
7.190000E-8	2.822564E-2
7.195000E-8	2.903942E-2
7.200000E-8	2.985321E-2
7.205000E-8	3.079550E-2
7.210000E-8	3.178917E-2
7.215000E-8	3.252587E-2
7.220000E-8	3.296274E-2
7.225000E-8	3.344245E-2
7.230000E-8	3.387933E-2
7.235000E-8	3.384506E-2
7.240000E-8	3.339105E-2
7.245000E-8	3.280855E-2
7.250000E-8	3.198620E-2
7.255000E-8	3.089829E-2
7.260000E-8	2.981895E-2
7.265000E-8	2.851689E-2
7.270000E-8	2.673512E-2
7.275000E-8	2.488482E-2
7.280000E-8	2.327437E-2
7.285000E-8	2.168962E-2
7.290000E-8	2.034473E-2
7.295000E-8	1.941102E-2
7.300000E-8	1.864862E-2
7.305000E-8	1.800616E-2
7.310000E-8	1.781770E-2
7.315000E-8	1.809182E-2
7.320000E-8	1.851156E-2
7.325000E-8	1.905123E-2
7.330000E-8	1.977080E-2
7.335000E-8	2.063598E-2
7.340000E-8	2.160396E-2
7.345000E-8	2.260621E-2
7.350000E-8	2.369412E-2
7.355000E-8	2.483342E-2
7.360000E-8	2.586136E-2
7.365000E-8	2.680365E-2
7.370000E-8	2.776306E-2
7.375000E-8	2.854258E-2
7.380000E-8	2.912509E-2
7.385000E-8	2.983608E-2
7.390000E-8	3.058134E-2
7.395000E-8	3.106961E-2
7.400000E-8	3.146366E-2
7.405000E-8	3.188340E-2
7.410000E-8	3.208043E-2
7.415000E-8	3.211469E-2
7.420000E-8	3.204616E-2
7.425000E-8	3.160072E-2
7.430000E-8	3.084689E-2
7.435000E-8	3.020443E-2
7.440000E-8	2.958766E-2
7.445000E-8	2.861968E-2
7.450000E-8	2.740328E-2
7.455000E-8	2.618688E-2
7.460000E-8	2.503044E-2
7.465000E-8	2.397680E-2
7.470000E-8	2.289746E-2
7.475000E-8	2.166393E-2
7.480000E-8	2.043896E-2
7.485000E-8	1.930822E-2
7.490000E-8	1.816892E-2
7.495000E-8	1.733799E-2
7.500000E-8	1.702105E-2
7.505000E-8	1.685829E-2
7.510000E-8	1.671266E-2
7.515000E-8	1.708957E-2
7.520000E-8	1.798903E-2
7.525000E-8	1.895701E-2
7.530000E-8	2.014771E-2
7.535000E-8	2.197231E-2
7.540000E-8	2.395110E-2
7.545000E-8	2.557868E-2
7.550000E-8	2.716343E-2
7.555000E-8	2.891093E-2
7.560000E-8	3.040145E-2
7.565000E-8	3.154075E-2
7.570000E-8	3.261153E-2
7.575000E-8	3.338249E-2
7.580000E-8	3.354525E-2
7.585000E-8	3.323686E-2
7.590000E-8	3.278285E-2
7.595000E-8	3.225175E-2
7.600000E-8	3.171208E-2
7.605000E-8	3.099252E-2
7.610000E-8	2.992174E-2
7.615000E-8	2.878244E-2
7.620000E-8	2.783159E-2
7.625000E-8	2.680365E-2
7.630000E-8	2.559581E-2
7.635000E-8	2.442224E-2
7.640000E-8	2.328294E-2
7.645000E-8	2.204084E-2
7.650000E-8	2.090153E-2
7.655000E-8	2.000208E-2
7.660000E-8	1.932535E-2
7.665000E-8	1.892274E-2
7.670000E-8	1.873429E-2
7.675000E-8	1.877712E-2
7.680000E-8	1.911120E-2
7.685000E-8	1.965087E-2
7.690000E-8	2.037900E-2
7.695000E-8	2.140694E-2
7.700000E-8	2.259764E-2
7.705000E-8	2.360845E-2
7.710000E-8	2.446507E-2
7.715000E-8	2.528743E-2
7.720000E-8	2.586993E-2
7.725000E-8	2.622971E-2
7.730000E-8	2.660662E-2
7.735000E-8	2.691501E-2
7.740000E-8	2.696640E-2
7.745000E-8	2.688931E-2
7.750000E-8	2.691501E-2
7.755000E-8	2.712916E-2
7.760000E-8	2.742898E-2
7.765000E-8	2.772023E-2
7.770000E-8	2.801148E-2
7.775000E-8	2.836269E-2
7.780000E-8	2.871391E-2
7.785000E-8	2.889380E-2
7.790000E-8	2.886810E-2
7.795000E-8	2.871391E-2
7.800000E-8	2.838839E-2
7.805000E-8	2.769453E-2
7.810000E-8	2.638390E-2
7.815000E-8	2.458500E-2
7.820000E-8	2.275183E-2
7.825000E-8	2.109856E-2
7.830000E-8	1.958234E-2
7.835000E-8	1.828028E-2
7.840000E-8	1.725233E-2
7.845000E-8	1.645568E-2
7.850000E-8	1.599310E-2
7.855000E-8	1.604450E-2
7.860000E-8	1.649851E-2
7.865000E-8	1.704674E-2
7.870000E-8	1.767208E-2
7.875000E-8	1.856296E-2
7.880000E-8	1.965087E-2
7.885000E-8	2.061028E-2
7.890000E-8	2.137267E-2
7.895000E-8	2.212650E-2
7.900000E-8	2.287176E-2
7.905000E-8	2.347139E-2
7.910000E-8	2.407103E-2
7.915000E-8	2.479916E-2
7.920000E-8	2.559581E-2
7.925000E-8	2.640960E-2
7.930000E-8	2.719769E-2
7.935000E-8	2.803718E-2
7.940000E-8	2.914222E-2
7.945000E-8	3.019586E-2
7.950000E-8	3.073553E-2
7.955000E-8	3.094969E-2
7.960000E-8	3.110388E-2
7.965000E-8	3.081263E-2
7.970000E-8	3.004167E-2
7.975000E-8	2.920218E-2
7.980000E-8	2.821707E-2
7.985000E-8	2.705207E-2
7.990000E-8	2.604982E-2
7.995000E-8	2.508184E-2
8.000000E-8	2.387401E-2
8.005000E-8	2.284606E-2
8.010000E-8	2.216077E-2
8.015000E-8	2.140694E-2
8.020000E-8	2.070451E-2
8.025000E-8	2.026764E-2
8.030000E-8	1.974510E-2
8.035000E-8	1.913690E-2
8.040000E-8	1.883708E-2
8.045000E-8	1.865719E-2
8.050000E-8	1.829741E-2
8.055000E-8	1.800616E-2
8.060000E-8	1.792906E-2
8.065000E-8	1.798046E-2
8.070000E-8	1.832311E-2
8.075000E-8	1.905980E-2
8.080000E-8	1.996782E-2
8.085000E-8	2.098720E-2
8.090000E-8	2.229782E-2
8.095000E-8	2.379691E-2
8.100000E-8	2.525316E-2
8.105000E-8	2.664089E-2
8.110000E-8	2.789155E-2
8.115000E-8	2.878244E-2
8.120000E-8	2.932211E-2
8.125000E-8	2.971615E-2
8.130000E-8	2.985321E-2
8.135000E-8	2.961336E-2
8.140000E-8	2.924501E-2
8.145000E-8	2.877387E-2
8.150000E-8	2.807144E-2
8.155000E-8	2.743754E-2
8.160000E-8	2.706063E-2
8.165000E-8	2.660662E-2
8.170000E-8	2.604125E-2
8.175000E-8	2.560438E-2
8.180000E-8	2.510754E-2
8.185000E-8	2.446507E-2
8.190000E-8	2.394254E-2
8.195000E-8	2.342000E-2
8.200000E-8	2.248628E-2
8.205000E-8	2.135554E-2
8.210000E-8	2.034473E-2
8.215000E-8	1.933392E-2
8.220000E-8	1.828884E-2
8.225000E-8	1.736369E-2
8.230000E-8	1.665270E-2
8.235000E-8	1.622439E-2
8.240000E-8	1.608733E-2
8.245000E-8	1.621582E-2
8.250000E-8	1.673836E-2
8.255000E-8	1.763781E-2
8.260000E-8	1.856296E-2
8.265000E-8	1.948811E-2
8.270000E-8	2.067881E-2
8.275000E-8	2.193804E-2
8.280000E-8	2.291459E-2
8.285000E-8	2.369412E-2
8.290000E-8	2.431945E-2
8.295000E-8	2.470493E-2
8.300000E-8	2.510754E-2
8.305000E-8	2.558725E-2
8.310000E-8	2.567291E-2
8.315000E-8	2.532169E-2
8.320000E-8	2.519320E-2
8.325000E-8	2.538166E-2
8.330000E-8	2.537309E-2
8.335000E-8	2.502188E-2
8.340000E-8	2.467923E-2
8.345000E-8	2.450790E-2
8.350000E-8	2.434515E-2
8.355000E-8	2.395110E-2
8.360000E-8	2.321441E-2
8.365000E-8	2.226356E-2
8.370000E-8	2.135554E-2
8.375000E-8	2.052462E-2
8.380000E-8	1.962517E-2
8.385000E-8	1.871715E-2
8.390000E-8	1.807469E-2
8.395000E-8	1.769777E-2
8.400000E-8	1.733799E-2
8.405000E-8	1.703818E-2
8.410000E-8	1.700391E-2
8.415000E-8	1.730373E-2
8.420000E-8	1.774061E-2
8.425000E-8	1.814322E-2
8.430000E-8	1.858866E-2
8.435000E-8	1.926539E-2
8.440000E-8	1.994212E-2
8.445000E-8	2.034473E-2
8.450000E-8	2.075591E-2
8.455000E-8	2.140694E-2
8.460000E-8	2.198944E-2
8.465000E-8	2.237492E-2
8.470000E-8	2.277753E-2
8.475000E-8	2.326581E-2
8.480000E-8	2.377978E-2
8.485000E-8	2.428518E-2
8.490000E-8	2.467923E-2
8.495000E-8	2.492765E-2
8.500000E-8	2.515894E-2
8.505000E-8	2.513324E-2
8.510000E-8	2.474776E-2
8.515000E-8	2.437941E-2
8.520000E-8	2.404533E-2
8.525000E-8	2.342000E-2
8.530000E-8	2.268330E-2
8.535000E-8	2.208367E-2
8.540000E-8	2.138981E-2
8.545000E-8	2.061028E-2
8.550000E-8	2.002778E-2
8.555000E-8	1.951381E-2
8.560000E-8	1.891418E-2
8.565000E-8	1.839164E-2
8.570000E-8	1.808325E-2
8.575000E-8	1.799759E-2
8.580000E-8	1.797189E-2
8.585000E-8	1.764638E-2
8.590000E-8	1.712384E-2
8.595000E-8	1.687542E-2
8.600000E-8	1.680689E-2
8.605000E-8	1.654990E-2
8.610000E-8	1.640428E-2
8.615000E-8	1.660987E-2
8.620000E-8	1.687542E-2
8.625000E-8	1.715810E-2
8.630000E-8	1.766351E-2
8.635000E-8	1.833167E-2
8.640000E-8	1.907693E-2
8.645000E-8	1.997638E-2
8.650000E-8	2.089297E-2
8.655000E-8	2.177529E-2
8.660000E-8	2.276040E-2
8.665000E-8	2.368555E-2
8.670000E-8	2.429375E-2
8.675000E-8	2.474776E-2
8.680000E-8	2.520177E-2
8.685000E-8	2.543305E-2
8.690000E-8	2.541592E-2
8.695000E-8	2.545019E-2
8.700000E-8	2.552728E-2
8.705000E-8	2.533883E-2
8.710000E-8	2.493621E-2
8.715000E-8	2.462783E-2
8.720000E-8	2.431088E-2
8.725000E-8	2.378834E-2
8.730000E-8	2.321441E-2
8.735000E-8	2.260621E-2
8.740000E-8	2.180099E-2
8.745000E-8	2.092723E-2
8.750000E-8	2.017341E-2
8.755000E-8	1.935105E-2
8.760000E-8	1.844303E-2
8.765000E-8	1.776630E-2
8.770000E-8	1.720950E-2
8.775000E-8	1.660987E-2
8.780000E-8	1.620726E-2
8.785000E-8	1.607876E-2
8.790000E-8	1.607876E-2
8.795000E-8	1.632718E-2
8.800000E-8	1.690968E-2
8.805000E-8	1.756928E-2
8.810000E-8	1.822888E-2
8.815000E-8	1.899127E-2
8.820000E-8	1.988216E-2
8.825000E-8	2.084157E-2
8.830000E-8	2.167249E-2
8.835000E-8	2.224643E-2
8.840000E-8	2.282893E-2
8.845000E-8	2.352279E-2
8.850000E-8	2.388257E-2
8.855000E-8	2.407959E-2
8.860000E-8	2.465353E-2
8.865000E-8	2.521033E-2
8.870000E-8	2.517607E-2
8.875000E-8	2.499618E-2
8.880000E-8	2.505614E-2
8.885000E-8	2.496191E-2
8.890000E-8	2.448221E-2
8.895000E-8	2.389114E-2
8.900000E-8	2.332577E-2
8.905000E-8	2.279466E-2
8.910000E-8	2.223786E-2
8.915000E-8	2.156113E-2
8.920000E-8	2.083300E-2
8.925000E-8	2.010488E-2
8.930000E-8	1.942815E-2
8.935000E-8	1.897414E-2
8.940000E-8	1.881995E-2
8.945000E-8	1.871715E-2
8.950000E-8	1.857153E-2
8.955000E-8	1.858866E-2
8.960000E-8	1.875998E-2
8.965000E-8	1.899984E-2
8.970000E-8	1.943671E-2
8.975000E-8	1.998495E-2
8.980000E-8	2.025050E-2
8.985000E-8	2.031047E-2
8.990000E-8	2.054175E-2
8.995000E-8	2.085870E-2
9.000000E-8	2.102146E-2
9.005000E-8	2.123562E-2
9.010000E-8	2.163823E-2
9.015000E-8	2.204940E-2
9.020000E-8	2.240062E-2
9.025000E-8	2.275183E-2
9.030000E-8	2.310305E-2
9.035000E-8	2.346283E-2
9.040000E-8	2.392540E-2
9.045000E-8	2.431945E-2
9.050000E-8	2.455930E-2
9.055000E-8	2.474776E-2
9.060000E-8	2.479916E-2
9.065000E-8	2.456787E-2
9.070000E-8	2.419952E-2
9.075000E-8	2.370268E-2
9.080000E-8	2.298312E-2
9.085000E-8	2.220360E-2
9.090000E-8	2.141551E-2
9.095000E-8	2.043039E-2
9.100000E-8	1.935105E-2
9.105000E-8	1.829741E-2
9.110000E-8	1.712384E-2
9.115000E-8	1.603593E-2
9.120000E-8	1.545343E-2
9.125000E-8	1.509365E-2
9.130000E-8	1.464821E-2
9.135000E-8	1.445975E-2
9.140000E-8	1.467391E-2
9.145000E-8	1.489663E-2
9.150000E-8	1.521358E-2
9.155000E-8	1.577895E-2
9.160000E-8	1.628435E-2
9.165000E-8	1.677263E-2
9.170000E-8	1.748362E-2
9.175000E-8	1.802329E-2
9.180000E-8	1.810039E-2
9.185000E-8	1.823745E-2
9.190000E-8	1.859723E-2
9.195000E-8	1.874285E-2
9.200000E-8	1.868289E-2
9.205000E-8	1.885421E-2
9.210000E-8	1.919686E-2
9.215000E-8	1.963374E-2
9.220000E-8	2.030190E-2
9.225000E-8	2.107286E-2
9.230000E-8	2.171532E-2
9.235000E-8	2.240919E-2
9.240000E-8	2.322297E-2
9.245000E-8	2.379691E-2
9.250000E-8	2.415669E-2
9.255000E-8	2.442224E-2
9.260000E-8	2.431945E-2
9.265000E-8	2.375408E-2
9.270000E-8	2.314588E-2
9.275000E-8	2.256338E-2
9.280000E-8	2.161253E-2
9.285000E-8	2.038756E-2
9.290000E-8	1.923112E-2
9.295000E-8	1.818605E-2
9.300000E-8	1.716667E-2
9.305000E-8	1.616443E-2
9.310000E-8	1.529067E-2
9.315000E-8	1.468247E-2
9.320000E-8	1.428843E-2
9.325000E-8	1.398004E-2
9.330000E-8	1.399718E-2
9.335000E-8	1.436552E-2
9.340000E-8	1.470817E-2
9.345000E-8	1.510222E-2
9.350000E-8	1.584748E-2
9.355000E-8	1.652421E-2
9.360000E-8	1.689255E-2
9.365000E-8	1.762068E-2
9.370000E-8	1.870002E-2
9.375000E-8	1.928252E-2
9.380000E-8	1.951381E-2
9.385000E-8	1.998495E-2
9.390000E-8	2.043896E-2
9.395000E-8	2.069595E-2
9.400000E-8	2.115852E-2
9.405000E-8	2.164679E-2
9.410000E-8	2.180955E-2
9.415000E-8	2.198088E-2
9.420000E-8	2.218646E-2
9.425000E-8	2.211793E-2
9.430000E-8	2.192948E-2
9.435000E-8	2.194661E-2
9.440000E-8	2.192091E-2
9.445000E-8	2.172389E-2
9.450000E-8	2.140694E-2
9.455000E-8	2.090153E-2
9.460000E-8	2.038756E-2
9.465000E-8	2.008774E-2
9.470000E-8	1.980506E-2
9.475000E-8	1.946241E-2
9.480000E-8	1.920543E-2
9.485000E-8	1.892274E-2
9.490000E-8	1.840877E-2
9.495000E-8	1.785197E-2
9.500000E-8	1.735513E-2
9.505000E-8	1.686685E-2
9.510000E-8	1.644711E-2
9.515000E-8	1.613873E-2
9.520000E-8	1.579608E-2
9.525000E-8	1.548770E-2
9.530000E-8	1.536777E-2
9.535000E-8	1.541917E-2
9.540000E-8	1.559049E-2
9.545000E-8	1.588174E-2
9.550000E-8	1.624152E-2
9.555000E-8	1.665270E-2
9.560000E-8	1.704674E-2
9.565000E-8	1.735513E-2
9.570000E-8	1.757785E-2
9.575000E-8	1.776630E-2
9.580000E-8	1.799759E-2
9.585000E-8	1.822888E-2
9.590000E-8	1.838307E-2
9.595000E-8	1.844303E-2
9.600000E-8	1.852870E-2
9.605000E-8	1.864862E-2
9.610000E-8	1.874285E-2
9.615000E-8	1.880281E-2
9.620000E-8	1.886278E-2
9.625000E-8	1.881138E-2
9.630000E-8	1.866576E-2
9.635000E-8	1.853726E-2
9.640000E-8	1.840877E-2
9.645000E-8	1.810039E-2
9.650000E-8	1.764638E-2
9.655000E-8	1.732943E-2
9.660000E-8	1.716667E-2
9.665000E-8	1.672979E-2
9.670000E-8	1.612159E-2
9.675000E-8	1.588174E-2
9.680000E-8	1.587317E-2
9.685000E-8	1.562475E-2
9.690000E-8	1.543630E-2
9.695000E-8	1.559906E-2
9.700000E-8	1.563332E-2
9.705000E-8	1.548770E-2
9.710000E-8	1.565902E-2
9.715000E-8	1.590744E-2
9.720000E-8	1.577038E-2
9.725000E-8	1.564189E-2
9.730000E-8	1.568472E-2
9.735000E-8	1.556479E-2
9.740000E-8	1.553909E-2
9.745000E-8	1.589031E-2
9.750000E-8	1.618156E-2
9.755000E-8	1.632718E-2
9.760000E-8	1.672123E-2
9.765000E-8	1.728660E-2
9.770000E-8	1.778344E-2
9.775000E-8	1.846873E-2
9.780000E-8	1.941958E-2
9.785000E-8	2.025907E-2
9.790000E-8	2.086727E-2
9.795000E-8	2.136411E-2
9.800000E-8	2.175815E-2
9.805000E-8	2.191235E-2
9.810000E-8	2.185238E-2
9.815000E-8	2.174959E-2
9.820000E-8	2.162966E-2
9.825000E-8	2.122705E-2
9.830000E-8	2.059315E-2
9.835000E-8	1.995069E-2
9.840000E-8	1.925682E-2
9.845000E-8	1.841734E-2
9.850000E-8	1.768921E-2
9.855000E-8	1.711527E-2
9.860000E-8	1.645568E-2
9.865000E-8	1.582178E-2
9.870000E-8	1.538490E-2
9.875000E-8	1.493089E-2
9.880000E-8	1.451115E-2
9.885000E-8	1.435696E-2
9.890000E-8	1.438266E-2
9.895000E-8	1.450258E-2
9.900000E-8	1.483666E-2
9.905000E-8	1.532494E-2
9.910000E-8	1.583034E-2
9.915000E-8	1.629292E-2
9.920000E-8	1.671266E-2
9.925000E-8	1.726090E-2
9.930000E-8	1.798903E-2
9.935000E-8	1.867432E-2
9.940000E-8	1.933392E-2
9.945000E-8	2.006205E-2
9.950000E-8	2.061028E-2
9.955000E-8	2.087584E-2
9.960000E-8	2.115852E-2
9.965000E-8	2.144120E-2
9.970000E-8	2.141551E-2
9.975000E-8	2.114995E-2
9.980000E-8	2.074734E-2
9.985000E-8	2.016484E-2
9.990000E-8	1.959091E-2
9.995000E-8	1.906837E-2
1.000000E-7	1.836594E-2
1.000500E-7	1.757785E-2
1.001000E-7	1.702105E-2
1.001500E-7	1.661843E-2
1.002000E-7	1.619012E-2
1.002500E-7	1.589031E-2
1.003000E-7	1.570185E-2
1.003500E-7	1.553909E-2
1.004000E-7	1.538490E-2
1.004500E-7	1.528211E-2
1.005000E-7	1.515361E-2
1.005500E-7	1.502512E-2
1.006000E-7	1.499942E-2
1.006500E-7	1.504225E-2
1.007000E-7	1.506795E-2
1.007500E-7	1.512791E-2
1.008000E-7	1.516218E-2
1.008500E-7	1.504225E-2
1.009000E-7	1.488806E-2
1.009500E-7	1.492233E-2
1.010000E-7	1.493946E-2
1.010500E-7	1.469104E-2
1.011000E-7	1.441692E-2
1.011500E-7	1.440835E-2
1.012000E-7	1.447688E-2
1.012500E-7	1.445975E-2
1.013000E-7	1.460538E-2
1.013500E-7	1.505082E-2
1.014000E-7	1.559049E-2
1.014500E-7	1.609590E-2
1.015000E-7	1.651564E-2
1.015500E-7	1.690968E-2
1.016000E-7	1.732943E-2
1.016500E-7	1.767208E-2
1.017000E-7	1.789480E-2
1.017500E-7	1.808325E-2
1.018000E-7	1.806612E-2
1.018500E-7	1.769777E-2
1.019000E-7	1.728660E-2
1.019500E-7	1.711527E-2
1.020000E-7	1.697821E-2
1.020500E-7	1.675549E-2
1.021000E-7	1.660987E-2
1.021500E-7	1.657560E-2
1.022000E-7	1.672123E-2
1.022500E-7	1.706388E-2
1.023000E-7	1.734656E-2
1.023500E-7	1.754358E-2
1.024000E-7	1.792906E-2
1.024500E-7	1.831454E-2
1.025000E-7	1.830598E-2
1.025500E-7	1.819461E-2
1.026000E-7	1.830598E-2
1.026500E-7	1.825458E-2
1.027000E-7	1.781770E-2
1.027500E-7	1.737226E-2
1.028000E-7	1.707244E-2
1.028500E-7	1.666983E-2
1.029000E-7	1.617299E-2
1.029500E-7	1.582178E-2
1.030000E-7	1.567615E-2
1.030500E-7	1.565045E-2
1.031000E-7	1.578751E-2
1.031500E-7	1.610446E-2
1.032000E-7	1.655847E-2
1.032500E-7	1.706388E-2
1.033000E-7	1.752645E-2
1.033500E-7	1.786053E-2
1.034000E-7	1.809182E-2
1.034500E-7	1.820318E-2
1.035000E-7	1.817748E-2
1.035500E-7	1.810895E-2
1.036000E-7	1.797189E-2
1.036500E-7	1.758641E-2
1.037000E-7	1.698678E-2
1.037500E-7	1.650707E-2
1.038000E-7	1.620726E-2
1.038500E-7	1.584748E-2
1.039000E-7	1.536777E-2
1.039500E-7	1.489663E-2
1.040000E-7	1.457968E-2
1.040500E-7	1.450258E-2
1.041000E-7	1.449402E-2
1.041500E-7	1.433982E-2
1.042000E-7	1.417707E-2
1.042500E-7	1.419420E-2
1.043000E-7	1.430556E-2
1.043500E-7	1.445119E-2
1.044000E-7	1.461394E-2
1.044500E-7	1.469104E-2
1.045000E-7	1.469104E-2
1.045500E-7	1.487093E-2
1.046000E-7	1.517075E-2
1.046500E-7	1.529924E-2
1.047000E-7	1.536777E-2
1.047500E-7	1.551339E-2
1.048000E-7	1.553909E-2
1.048500E-7	1.547913E-2
1.049000E-7	1.567615E-2
1.049500E-7	1.610446E-2
1.050000E-7	1.650707E-2
1.050500E-7	1.703818E-2
1.051000E-7	1.783483E-2
1.051500E-7	1.850300E-2
1.052000E-7	1.889704E-2
1.052500E-7	1.929109E-2
1.053000E-7	1.990785E-2
1.053500E-7	2.049036E-2
1.054000E-7	2.067025E-2
1.054500E-7	2.037900E-2
1.055000E-7	1.981363E-2
1.055500E-7	1.925682E-2
1.056000E-7	1.869145E-2
1.056500E-7	1.790336E-2
1.057000E-7	1.693538E-2
1.057500E-7	1.610446E-2
1.058000E-7	1.548770E-2
1.058500E-7	1.488806E-2
1.059000E-7	1.433126E-2
1.059500E-7	1.401431E-2
1.060000E-7	1.383442E-2
1.060500E-7	1.367166E-2
1.061000E-7	1.368023E-2
1.061500E-7	1.394578E-2
1.062000E-7	1.417707E-2
1.062500E-7	1.425416E-2
1.063000E-7	1.431413E-2
1.063500E-7	1.445975E-2
1.064000E-7	1.466534E-2
1.064500E-7	1.491376E-2
1.065000E-7	1.504225E-2
1.065500E-7	1.503369E-2
1.066000E-7	1.514505E-2
1.066500E-7	1.535064E-2
1.067000E-7	1.543630E-2
1.067500E-7	1.539347E-2
1.068000E-7	1.538490E-2
1.068500E-7	1.543630E-2
1.069000E-7	1.552196E-2
1.069500E-7	1.564189E-2
1.070000E-7	1.584748E-2
1.070500E-7	1.608733E-2
1.071000E-7	1.631862E-2
1.071500E-7	1.667840E-2
1.072000E-7	1.725233E-2
1.072500E-7	1.767208E-2
1.073000E-7	1.778344E-2
1.073500E-7	1.802329E-2
1.074000E-7	1.848587E-2
1.074500E-7	1.858866E-2
1.075000E-7	1.828884E-2
1.075500E-7	1.794619E-2
1.076000E-7	1.753502E-2
1.076500E-7	1.700391E-2
1.077000E-7	1.659274E-2
1.077500E-7	1.628435E-2
1.078000E-7	1.597597E-2
1.078500E-7	1.566759E-2
1.079000E-7	1.532494E-2
1.079500E-7	1.506795E-2
1.080000E-7	1.506795E-2
1.080500E-7	1.500799E-2
1.081000E-7	1.469960E-2
1.081500E-7	1.455398E-2
1.082000E-7	1.449402E-2
1.082500E-7	1.386868E-2
1.083000E-7	1.298636E-2
1.083500E-7	1.247239E-2
1.084000E-7	1.205265E-2
1.084500E-7	1.141875E-2
1.085000E-7	1.102470E-2
1.085500E-7	1.109323E-2
1.086000E-7	1.126456E-2
1.086500E-7	1.149585E-2
1.087000E-7	1.203552E-2
1.087500E-7	1.283217E-2
1.088000E-7	1.366309E-2
1.088500E-7	1.451115E-2
1.089000E-7	1.531637E-2
1.089500E-7	1.603593E-2
1.090000E-7	1.664413E-2
1.090500E-7	1.714954E-2
1.091000E-7	1.750075E-2
1.091500E-7	1.754358E-2
1.092000E-7	1.732943E-2
1.092500E-7	1.703818E-2
1.093000E-7	1.681546E-2
1.093500E-7	1.658417E-2
1.094000E-7	1.612159E-2
1.094500E-7	1.550483E-2
1.095000E-7	1.502512E-2
1.095500E-7	1.469104E-2
1.096000E-7	1.425416E-2
1.096500E-7	1.389438E-2
1.097000E-7	1.386868E-2
1.097500E-7	1.404001E-2
1.098000E-7	1.418563E-2
1.098500E-7	1.427129E-2
1.099000E-7	1.421990E-2
1.099500E-7	1.422846E-2
1.100000E-7	1.451971E-2
1.100500E-7	1.473387E-2
1.101000E-7	1.458824E-2
1.101500E-7	1.451971E-2
1.102000E-7	1.468247E-2
1.102500E-7	1.462251E-2
1.103000E-7	1.443405E-2
1.103500E-7	1.450258E-2
1.104000E-7	1.458824E-2
1.104500E-7	1.456255E-2
1.105000E-7	1.479383E-2
1.105500E-7	1.526497E-2
1.106000E-7	1.558192E-2
1.106500E-7	1.564189E-2
1.107000E-7	1.570185E-2
1.107500E-7	1.589031E-2
1.108000E-7	1.620726E-2
1.108500E-7	1.633575E-2
1.109000E-7	1.613873E-2
1.109500E-7	1.596740E-2
1.110000E-7	1.593314E-2
1.110500E-7	1.563332E-2
1.111000E-7	1.510222E-2
1.111500E-7	1.472530E-2
1.112000E-7	1.445975E-2
1.112500E-7	1.396291E-2
1.113000E-7	1.332901E-2
1.113500E-7	1.277221E-2
1.114000E-7	1.225824E-2
1.114500E-7	1.172713E-2
1.115000E-7	1.132452E-2
1.115500E-7	1.111037E-2
1.116000E-7	1.113607E-2
1.116500E-7	1.129882E-2
1.117000E-7	1.147015E-2
1.117500E-7	1.159864E-2
1.118000E-7	1.192416E-2
1.118500E-7	1.249809E-2
1.119000E-7	1.293497E-2
1.119500E-7	1.311486E-2
1.120000E-7	1.333758E-2
1.120500E-7	1.362026E-2
1.121000E-7	1.368023E-2
1.121500E-7	1.359456E-2
1.122000E-7	1.360313E-2
1.122500E-7	1.369736E-2
1.123000E-7	1.368023E-2
1.123500E-7	1.352604E-2
1.124000E-7	1.334615E-2
1.124500E-7	1.332901E-2
1.125000E-7	1.360313E-2
1.125500E-7	1.405714E-2
1.126000E-7	1.450258E-2
1.126500E-7	1.478527E-2
1.127000E-7	1.493946E-2
1.127500E-7	1.513648E-2
1.128000E-7	1.539347E-2
1.128500E-7	1.546200E-2
1.129000E-7	1.532494E-2
1.129500E-7	1.521358E-2
1.130000E-7	1.512791E-2
1.130500E-7	1.491376E-2
1.131000E-7	1.456255E-2
1.131500E-7	1.424560E-2
1.132000E-7	1.409140E-2
1.132500E-7	1.407427E-2
1.133000E-7	1.406571E-2
1.133500E-7	1.413424E-2
1.134000E-7	1.441692E-2
1.134500E-7	1.467391E-2
1.135000E-7	1.466534E-2
1.135500E-7	1.451971E-2
1.136000E-7	1.440835E-2
1.136500E-7	1.428843E-2
1.137000E-7	1.415137E-2
1.137500E-7	1.389438E-2
1.138000E-7	1.332901E-2
1.138500E-7	1.266942E-2
1.139000E-7	1.234390E-2
1.139500E-7	1.236103E-2
1.140000E-7	1.242100E-2
1.140500E-7	1.248953E-2
1.141000E-7	1.269511E-2
1.141500E-7	1.310629E-2
1.142000E-7	1.362026E-2
1.142500E-7	1.411710E-2
1.143000E-7	1.459681E-2
1.143500E-7	1.508508E-2
1.144000E-7	1.547913E-2
1.144500E-7	1.574468E-2
1.145000E-7	1.583891E-2
1.145500E-7	1.573612E-2
1.146000E-7	1.556479E-2
1.146500E-7	1.541917E-2
1.147000E-7	1.511935E-2
1.147500E-7	1.469104E-2
1.148000E-7	1.454541E-2
1.148500E-7	1.464821E-2
1.149000E-7	1.454541E-2
1.149500E-7	1.430556E-2
1.150000E-7	1.421133E-2
1.150500E-7	1.408284E-2
1.151000E-7	1.375732E-2
1.151500E-7	1.337184E-2
1.152000E-7	1.296067E-2
1.152500E-7	1.260945E-2
1.153000E-7	1.245526E-2
1.153500E-7	1.216401E-2
1.154000E-7	1.149585E-2
1.154500E-7	1.098187E-2
1.155000E-7	1.099044E-2
1.155500E-7	1.111893E-2
1.156000E-7	1.118746E-2
1.156500E-7	1.141875E-2
1.157000E-7	1.177853E-2
1.157500E-7	1.215544E-2
1.158000E-7	1.265228E-2
1.158500E-7	1.309773E-2
1.159000E-7	1.329475E-2
1.159500E-7	1.351747E-2
1.160000E-7	1.389438E-2
1.160500E-7	1.413424E-2
1.161000E-7	1.426273E-2
1.161500E-7	1.463964E-2
1.162000E-7	1.511935E-2
1.162500E-7	1.537633E-2
1.163000E-7	1.565045E-2
1.163500E-7	1.606163E-2
1.164000E-7	1.626722E-2
1.164500E-7	1.621582E-2
1.165000E-7	1.616443E-2
1.165500E-7	1.603593E-2
1.166000E-7	1.571042E-2
1.166500E-7	1.534207E-2
1.167000E-7	1.492233E-2
1.167500E-7	1.446832E-2
1.168000E-7	1.414280E-2
1.168500E-7	1.381729E-2
1.169000E-7	1.339754E-2
1.169500E-7	1.326048E-2
1.170000E-7	1.341467E-2
1.170500E-7	1.339754E-2
1.171000E-7	1.336328E-2
1.171500E-7	1.365453E-2
1.172000E-7	1.388582E-2
1.172500E-7	1.383442E-2
1.173000E-7	1.371449E-2
1.173500E-7	1.343181E-2
1.174000E-7	1.296923E-2
1.174500E-7	1.256662E-2
1.175000E-7	1.201838E-2
1.175500E-7	1.122173E-2
1.176000E-7	1.056213E-2
1.176500E-7	9.988195E-3
1.177000E-7	9.225803E-3
1.177500E-7	8.771794E-3
1.178000E-7	8.840324E-3
1.178500E-7	8.857456E-3
1.179000E-7	8.951684E-3
1.179500E-7	9.534186E-3
1.180000E-7	1.015095E-2
1.180500E-7	1.058783E-2
1.181000E-7	1.131596E-2
1.181500E-7	1.216401E-2
1.182000E-7	1.266942E-2
1.182500E-7	1.304633E-2
1.183000E-7	1.331188E-2
1.183500E-7	1.332901E-2
1.184000E-7	1.336328E-2
1.184500E-7	1.344894E-2
1.185000E-7	1.318339E-2
1.185500E-7	1.277221E-2
1.186000E-7	1.258375E-2
1.186500E-7	1.244669E-2
1.187000E-7	1.230107E-2
1.187500E-7	1.238673E-2
1.188000E-7	1.262658E-2
1.188500E-7	1.291784E-2
1.189000E-7	1.332045E-2
1.189500E-7	1.370593E-2
1.190000E-7	1.402287E-2
1.190500E-7	1.438266E-2
1.191000E-7	1.460538E-2
1.191500E-7	1.454541E-2
1.192000E-7	1.445975E-2
1.192500E-7	1.427129E-2
1.193000E-7	1.370593E-2
1.193500E-7	1.307203E-2
1.194000E-7	1.266942E-2
1.194500E-7	1.207835E-2
1.195000E-7	1.129882E-2
1.195500E-7	1.092191E-2
1.196000E-7	1.084481E-2
1.196500E-7	1.065636E-2
1.197000E-7	1.075059E-2
1.197500E-7	1.129882E-2
1.198000E-7	1.164147E-2
1.198500E-7	1.175283E-2
1.199000E-7	1.214688E-2
1.199500E-7	1.250666E-2
1.200000E-7	1.251522E-2
1.200500E-7	1.260089E-2
1.201000E-7	1.280647E-2
1.201500E-7	1.278078E-2
1.202000E-7	1.275508E-2
1.202500E-7	1.289214E-2
1.203000E-7	1.280647E-2
1.203500E-7	1.258375E-2
1.204000E-7	1.268655E-2
1.204500E-7	1.277221E-2
1.205000E-7	1.260089E-2
1.205500E-7	1.263515E-2
1.206000E-7	1.285787E-2
1.206500E-7	1.278078E-2
1.207000E-7	1.256662E-2
1.207500E-7	1.251522E-2
1.208000E-7	1.242100E-2
1.208500E-7	1.216401E-2
1.209000E-7	1.200125E-2
1.209500E-7	1.182136E-2
1.210000E-7	1.153011E-2
1.210500E-7	1.129026E-2
1.211000E-7	1.102470E-2
1.211500E-7	1.077629E-2
1.212000E-7	1.085338E-2
1.212500E-7	1.111037E-2
1.213000E-7	1.111893E-2
1.213500E-7	1.113607E-2
1.214000E-7	1.146158E-2
1.214500E-7	1.176996E-2
1.215000E-7	1.192416E-2
1.215500E-7	1.215544E-2
1.216000E-7	1.229250E-2
1.216500E-7	1.214688E-2
1.217000E-7	1.213831E-2
1.217500E-7	1.244669E-2
1.218000E-7	1.269511E-2
1.218500E-7	1.271225E-2
1.219000E-7	1.277221E-2
1.219500E-7	1.287500E-2
1.220000E-7	1.284074E-2
1.220500E-7	1.268655E-2
1.221000E-7	1.246383E-2
1.221500E-7	1.217258E-2
1.222000E-7	1.186419E-2
1.222500E-7	1.159864E-2
1.223000E-7	1.129026E-2
1.223500E-7	1.093904E-2
1.224000E-7	1.074202E-2
1.224500E-7	1.088765E-2
1.225000E-7	1.118746E-2
1.225500E-7	1.153868E-2
1.226000E-7	1.217258E-2
1.226500E-7	1.300350E-2
1.227000E-7	1.358600E-2
1.227500E-7	1.383442E-2
1.228000E-7	1.408284E-2
1.228500E-7	1.427129E-2
1.229000E-7	1.427129E-2
1.229500E-7	1.421990E-2
1.230000E-7	1.398004E-2
1.230500E-7	1.324335E-2
1.231000E-7	1.235247E-2
1.231500E-7	1.166717E-2
1.232000E-7	1.088765E-2
1.232500E-7	9.962496E-3
1.233000E-7	9.388561E-3
1.233500E-7	9.148707E-3
1.234000E-7	8.968817E-3
1.234500E-7	8.994515E-3
1.235000E-7	9.234369E-3
1.235500E-7	9.525620E-3
1.236000E-7	9.996761E-3
1.236500E-7	1.059639E-2
1.237000E-7	1.105040E-2
1.237500E-7	1.153868E-2
1.238000E-7	1.216401E-2
1.238500E-7	1.244669E-2
1.239000E-7	1.237816E-2
1.239500E-7	1.250666E-2
1.240000E-7	1.264372E-2
1.240500E-7	1.224111E-2
1.241000E-7	1.170143E-2
1.241500E-7	1.153011E-2
1.242000E-7	1.129026E-2
1.242500E-7	1.069062E-2
1.243000E-7	1.021092E-2
1.243500E-7	1.009099E-2
1.244000E-7	1.007386E-2
1.244500E-7	1.009956E-2
1.245000E-7	1.023661E-2
1.245500E-7	1.039937E-2
1.246000E-7	1.063923E-2
1.246500E-7	1.091334E-2
1.247000E-7	1.097331E-2
1.247500E-7	1.087051E-2
1.248000E-7	1.086195E-2
1.248500E-7	1.084481E-2
1.249000E-7	1.072489E-2
1.249500E-7	1.068206E-2
1.250000E-7	1.068206E-2
1.250500E-7	1.045934E-2
1.251000E-7	1.024518E-2
1.251500E-7	1.032228E-2
1.252000E-7	1.054500E-2
1.252500E-7	1.068206E-2
1.253000E-7	1.078485E-2
1.253500E-7	1.085338E-2
1.254000E-7	1.079342E-2
1.254500E-7	1.075915E-2
1.255000E-7	1.083625E-2
1.255500E-7	1.093904E-2
1.256000E-7	1.106754E-2
1.256500E-7	1.121316E-2
1.257000E-7	1.129026E-2
1.257500E-7	1.135879E-2
1.258000E-7	1.161577E-2
1.258500E-7	1.188989E-2
1.259000E-7	1.200125E-2
1.259500E-7	1.207835E-2
1.260000E-7	1.200125E-2
1.260500E-7	1.160721E-2
1.261000E-7	1.116176E-2
1.261500E-7	1.092191E-2
1.262000E-7	1.064779E-2
1.262500E-7	1.036511E-2
1.263000E-7	1.026231E-2
1.263500E-7	1.006529E-2
1.264000E-7	9.688378E-3
1.264500E-7	9.525620E-3
1.265000E-7	9.585583E-3
1.265500E-7	9.517054E-3
1.266000E-7	9.465656E-3
1.266500E-7	9.551318E-3
1.267000E-7	9.482789E-3
1.267500E-7	9.354296E-3
1.268000E-7	9.457090E-3
1.268500E-7	9.585583E-3
1.269000E-7	9.559885E-3
1.269500E-7	9.594149E-3
1.270000E-7	9.679811E-3
1.270500E-7	9.662679E-3
1.271000E-7	9.748341E-3
1.271500E-7	1.002246E-2
1.272000E-7	1.021948E-2
1.272500E-7	1.039937E-2
1.273000E-7	1.075059E-2
1.273500E-7	1.113607E-2
1.274000E-7	1.146158E-2
1.274500E-7	1.181280E-2
1.275000E-7	1.206122E-2
1.275500E-7	1.214688E-2
1.276000E-7	1.221541E-2
1.276500E-7	1.224967E-2
1.277000E-7	1.206978E-2
1.277500E-7	1.178710E-2
1.278000E-7	1.154724E-2
1.278500E-7	1.123029E-2
1.279000E-7	1.081055E-2
1.279500E-7	1.044220E-2
1.280000E-7	1.021948E-2
1.280500E-7	1.012525E-2
1.281000E-7	1.015095E-2
1.281500E-7	1.021092E-2
1.282000E-7	1.027088E-2
1.282500E-7	1.041650E-2
1.283000E-7	1.070776E-2
1.283500E-7	1.105897E-2
1.284000E-7	1.135022E-2
1.284500E-7	1.154724E-2
1.285000E-7	1.159864E-2
1.285500E-7	1.150441E-2
1.286000E-7	1.135022E-2
1.286500E-7	1.111037E-2
1.287000E-7	1.075059E-2
1.287500E-7	1.039081E-2
1.288000E-7	1.007386E-2
1.288500E-7	9.774040E-3
1.289000E-7	9.559885E-3
1.289500E-7	9.414259E-3
1.290000E-7	9.208670E-3
1.290500E-7	9.045913E-3
1.291000E-7	9.242935E-3
1.291500E-7	9.594149E-3
1.292000E-7	9.851135E-3
1.292500E-7	1.024518E-2
1.293000E-7	1.074202E-2
1.293500E-7	1.099901E-2
1.294000E-7	1.108467E-2
1.294500E-7	1.129882E-2
1.295000E-7	1.156438E-2
1.295500E-7	1.169287E-2
1.296000E-7	1.169287E-2
1.296500E-7	1.160721E-2
1.297000E-7	1.150441E-2
1.297500E-7	1.143588E-2
1.298000E-7	1.130739E-2
1.298500E-7	1.111893E-2
1.299000E-7	1.101614E-2
1.299500E-7	1.099901E-2
1.300000E-7	1.105897E-2
1.300500E-7	1.117033E-2
1.301000E-7	1.123886E-2
1.301500E-7	1.129026E-2
1.302000E-7	1.147015E-2
1.302500E-7	1.171000E-2
1.303000E-7	1.172713E-2
1.303500E-7	1.155581E-2
1.304000E-7	1.146158E-2
1.304500E-7	1.144445E-2
1.305000E-7	1.127312E-2
1.305500E-7	1.095618E-2
1.306000E-7	1.068206E-2
1.306500E-7	1.051073E-2
1.307000E-7	1.040794E-2
1.307500E-7	1.040794E-2
1.308000E-7	1.060496E-2
1.308500E-7	1.088765E-2
1.309000E-7	1.113607E-2
1.309500E-7	1.147015E-2
1.310000E-7	1.190702E-2
1.310500E-7	1.220684E-2
1.311000E-7	1.224111E-2
1.311500E-7	1.223254E-2
1.312000E-7	1.236103E-2
1.312500E-7	1.229250E-2
1.313000E-7	1.185563E-2
1.313500E-7	1.149585E-2
1.314000E-7	1.137592E-2
1.314500E-7	1.100757E-2
1.315000E-7	1.038224E-2
1.315500E-7	1.003959E-2
1.316000E-7	9.834003E-3
1.316500E-7	9.465656E-3
1.317000E-7	9.397127E-3
1.317500E-7	9.739775E-3
1.318000E-7	9.859702E-3
1.318500E-7	9.722642E-3
1.319000E-7	9.808304E-3
1.319500E-7	1.005672E-2
1.320000E-7	1.021948E-2
1.320500E-7	1.041650E-2
1.321000E-7	1.061353E-2
1.321500E-7	1.081055E-2
1.322000E-7	1.113607E-2
1.322500E-7	1.141875E-2
1.323000E-7	1.143588E-2
1.323500E-7	1.148728E-2
1.324000E-7	1.179566E-2
1.324500E-7	1.212974E-2
1.325000E-7	1.242100E-2
1.325500E-7	1.278078E-2
1.326000E-7	1.299493E-2
1.326500E-7	1.293497E-2
1.327000E-7	1.278078E-2
1.327500E-7	1.259232E-2
1.328000E-7	1.224111E-2
1.328500E-7	1.181280E-2
1.329000E-7	1.136735E-2
1.329500E-7	1.085338E-2
1.330000E-7	1.033084E-2
1.330500E-7	9.971062E-3
1.331000E-7	9.739775E-3
1.331500E-7	9.662679E-3
1.332000E-7	9.774040E-3
1.332500E-7	9.902533E-3
1.333000E-7	9.885400E-3
1.333500E-7	1.001389E-2
1.334000E-7	1.038224E-2
1.334500E-7	1.069919E-2
1.335000E-7	1.086195E-2
1.335500E-7	1.108467E-2
1.336000E-7	1.145301E-2
1.336500E-7	1.184706E-2
1.337000E-7	1.212118E-2
1.337500E-7	1.220684E-2
1.338000E-7	1.218114E-2
1.338500E-7	1.223254E-2
1.339000E-7	1.225824E-2
1.339500E-7	1.204408E-2
1.340000E-7	1.168430E-2
1.340500E-7	1.141875E-2
1.341000E-7	1.126456E-2
1.341500E-7	1.117890E-2
1.342000E-7	1.112750E-2
1.342500E-7	1.103327E-2
1.343000E-7	1.095618E-2
1.343500E-7	1.111893E-2
1.344000E-7	1.149585E-2
1.344500E-7	1.195842E-2
1.345000E-7	1.248096E-2
1.345500E-7	1.296067E-2
1.346000E-7	1.315769E-2
1.346500E-7	1.320052E-2
1.347000E-7	1.326048E-2
1.347500E-7	1.318339E-2
1.348000E-7	1.296923E-2
1.348500E-7	1.289214E-2
1.349000E-7	1.295210E-2
1.349500E-7	1.295210E-2
1.350000E-7	1.290070E-2
1.350500E-7	1.278934E-2
1.351000E-7	1.253236E-2
1.351500E-7	1.228394E-2
1.352000E-7	1.220684E-2
1.352500E-7	1.215544E-2
1.353000E-7	1.196699E-2
1.353500E-7	1.173570E-2
1.354000E-7	1.155581E-2
1.354500E-7	1.141018E-2
1.355000E-7	1.117033E-2
1.355500E-7	1.088765E-2
1.356000E-7	1.085338E-2
1.356500E-7	1.109323E-2
1.357000E-7	1.130739E-2
1.357500E-7	1.141018E-2
1.358000E-7	1.172713E-2
1.358500E-7	1.224111E-2
1.359000E-7	1.261802E-2
1.359500E-7	1.288357E-2
1.360000E-7	1.308916E-2
1.360500E-7	1.308059E-2
1.361000E-7	1.294353E-2
1.361500E-7	1.291784E-2
1.362000E-7	1.282361E-2
1.362500E-7	1.254092E-2
1.363000E-7	1.227537E-2
1.363500E-7	1.195842E-2
1.364000E-7	1.143588E-2
1.364500E-7	1.090478E-2
1.365000E-7	1.049360E-2
1.365500E-7	1.008242E-2
1.366000E-7	9.791172E-3
1.366500E-7	9.765473E-3
1.367000E-7	9.679811E-3
1.367500E-7	9.542752E-3
1.368000E-7	9.679811E-3
1.368500E-7	9.971062E-3
1.369000E-7	1.009099E-2
1.369500E-7	1.027945E-2
1.370000E-7	1.070776E-2
1.370500E-7	1.100757E-2
1.371000E-7	1.106754E-2
1.371500E-7	1.113607E-2
1.372000E-7	1.118746E-2
1.372500E-7	1.101614E-2
1.373000E-7	1.062209E-2
1.373500E-7	1.021948E-2
1.374000E-7	9.911099E-3
1.374500E-7	9.645547E-3
1.375000E-7	9.260068E-3
1.375500E-7	8.848890E-3
1.376000E-7	8.651867E-3
1.376500E-7	8.583338E-3
1.377000E-7	8.420580E-3
1.377500E-7	8.257822E-3
1.378000E-7	8.300653E-3
1.378500E-7	8.420580E-3
1.379000E-7	8.506242E-3
1.379500E-7	8.643301E-3
1.380000E-7	8.754662E-3
1.380500E-7	8.720397E-3
1.381000E-7	8.711831E-3
1.381500E-7	8.720397E-3
1.382000E-7	8.523374E-3
1.382500E-7	8.180726E-3
1.383000E-7	8.052233E-3
1.383500E-7	8.120763E-3
1.384000E-7	8.103630E-3
1.384500E-7	8.009402E-3
1.385000E-7	7.966571E-3
1.385500E-7	8.146461E-3
1.386000E-7	8.514808E-3
1.386500E-7	8.823191E-3
1.387000E-7	8.985949E-3
1.387500E-7	9.225803E-3
1.388000E-7	9.559885E-3
1.388500E-7	9.791172E-3
1.389000E-7	1.002246E-2
1.389500E-7	1.036511E-2
1.390000E-7	1.059639E-2
1.390500E-7	1.067349E-2
1.391000E-7	1.081055E-2
1.391500E-7	1.090478E-2
1.392000E-7	1.082768E-2
1.392500E-7	1.085338E-2
1.393000E-7	1.088765E-2
1.393500E-7	1.063923E-2
1.394000E-7	1.037367E-2
1.394500E-7	1.039081E-2
1.395000E-7	1.032228E-2
1.395500E-7	1.003959E-2
1.396000E-7	9.962496E-3
1.396500E-7	1.001389E-2
1.397000E-7	9.842569E-3
1.397500E-7	9.679811E-3
1.398000E-7	9.748341E-3
1.398500E-7	9.739775E-3
1.399000E-7	9.542752E-3
1.399500E-7	9.482789E-3
1.400000E-7	9.568451E-3
1.400500E-7	9.602716E-3
1.401000E-7	9.542752E-3
1.401500E-7	9.517054E-3
1.402000E-7	9.611282E-3
1.402500E-7	9.748341E-3
1.403000E-7	9.851135E-3
1.403500E-7	1.005672E-2
1.404000E-7	1.046790E-2
1.404500E-7	1.078485E-2
1.405000E-7	1.089621E-2
1.405500E-7	1.119603E-2
1.406000E-7	1.160721E-2
1.406500E-7	1.171857E-2
1.407000E-7	1.176140E-2
1.407500E-7	1.207835E-2
1.408000E-7	1.222397E-2
1.408500E-7	1.194129E-2
1.409000E-7	1.166717E-2
1.409500E-7	1.145301E-2
1.410000E-7	1.100757E-2
1.410500E-7	1.045077E-2
1.411000E-7	9.971062E-3
1.411500E-7	9.482789E-3
1.412000E-7	9.088744E-3
1.412500E-7	8.934552E-3
1.413000E-7	8.831758E-3
1.413500E-7	8.763228E-3
1.414000E-7	8.951684E-3
1.414500E-7	9.174406E-3
1.415000E-7	9.182972E-3
1.415500E-7	9.268634E-3
1.416000E-7	9.508487E-3
1.416500E-7	9.525620E-3
1.417000E-7	9.294332E-3
1.417500E-7	9.157273E-3
1.418000E-7	9.063045E-3
1.418500E-7	8.857456E-3
1.419000E-7	8.626169E-3
1.419500E-7	8.497676E-3
1.420000E-7	8.600470E-3
1.420500E-7	9.028780E-3
1.421000E-7	9.508487E-3
1.421500E-7	9.825437E-3
1.422000E-7	1.027088E-2
1.422500E-7	1.091334E-2
1.423000E-7	1.135879E-2
1.423500E-7	1.155581E-2
1.424000E-7	1.166717E-2
1.424500E-7	1.153011E-2
1.425000E-7	1.114463E-2
1.425500E-7	1.086195E-2
1.426000E-7	1.063923E-2
1.426500E-7	1.019378E-2
1.427000E-7	9.731209E-3
1.427500E-7	9.636980E-3
1.428000E-7	9.799738E-3
1.428500E-7	9.842569E-3
1.429000E-7	9.748341E-3
1.429500E-7	9.714076E-3
1.430000E-7	9.868268E-3
1.430500E-7	1.008242E-2
1.431000E-7	1.021092E-2
1.431500E-7	1.024518E-2
1.432000E-7	1.026231E-2
1.432500E-7	1.020235E-2
1.433000E-7	1.000533E-2
1.433500E-7	9.816871E-3
1.434000E-7	9.688378E-3
1.434500E-7	9.491355E-3
1.435000E-7	9.140141E-3
1.435500E-7	8.746096E-3
1.436000E-7	8.463411E-3
1.436500E-7	8.274954E-3
1.437000E-7	8.137895E-3
1.437500E-7	8.095064E-3
1.438000E-7	8.197859E-3
1.438500E-7	8.463411E-3
1.439000E-7	8.797493E-3
1.439500E-7	9.225803E-3
1.440000E-7	9.799738E-3
1.440500E-7	1.036511E-2
1.441000E-7	1.075059E-2
1.441500E-7	1.106754E-2
1.442000E-7	1.145301E-2
1.442500E-7	1.170143E-2
1.443000E-7	1.165860E-2
1.443500E-7	1.149585E-2
1.444000E-7	1.129026E-2
1.444500E-7	1.096474E-2
1.445000E-7	1.058783E-2
1.445500E-7	1.020235E-2
1.446000E-7	9.671245E-3
1.446500E-7	9.011648E-3
1.447000E-7	8.471977E-3
1.447500E-7	8.180726E-3
1.448000E-7	7.915174E-3
1.448500E-7	7.546827E-3
1.449000E-7	7.298408E-3
1.449500E-7	7.324106E-3
1.450000E-7	7.426901E-3
1.450500E-7	7.495430E-3
1.451000E-7	7.598225E-3
1.451500E-7	7.641056E-3
1.452000E-7	7.581092E-3
1.452500E-7	7.649622E-3
1.453000E-7	7.838078E-3
1.453500E-7	7.906608E-3
1.454000E-7	7.983704E-3
1.454500E-7	8.163594E-3
1.455000E-7	8.189292E-3
1.455500E-7	8.112197E-3
1.456000E-7	8.274954E-3
1.456500E-7	8.454845E-3
1.457000E-7	8.394881E-3
1.457500E-7	8.429146E-3
1.458000E-7	8.686132E-3
1.458500E-7	8.917420E-3
1.459000E-7	9.157273E-3
1.459500E-7	9.602716E-3
1.460000E-7	1.009099E-2
1.460500E-7	1.041650E-2
1.461000E-7	1.061353E-2
1.461500E-7	1.077629E-2
1.462000E-7	1.086195E-2
1.462500E-7	1.081055E-2
1.463000E-7	1.066492E-2
1.463500E-7	1.055356E-2
1.464000E-7	1.039081E-2
1.464500E-7	1.003103E-2
1.465000E-7	9.636980E-3
1.465500E-7	9.397127E-3
1.466000E-7	9.131575E-3
1.466500E-7	8.814625E-3
1.467000E-7	8.651867E-3
1.467500E-7	8.634735E-3
1.468000E-7	8.634735E-3
1.468500E-7	8.660434E-3
1.469000E-7	8.660434E-3
1.469500E-7	8.660434E-3
1.470000E-7	8.737529E-3
1.470500E-7	8.848890E-3
1.471000E-7	8.848890E-3
1.471500E-7	8.883155E-3
1.472000E-7	9.071611E-3
1.472500E-7	9.234369E-3
1.473000E-7	9.277200E-3
1.473500E-7	9.405693E-3
1.474000E-7	9.662679E-3
1.474500E-7	9.791172E-3
1.475000E-7	9.722642E-3
1.475500E-7	9.508487E-3
1.476000E-7	9.208670E-3
1.476500E-7	8.788927E-3
1.477000E-7	8.360616E-3
1.477500E-7	8.009402E-3
1.478000E-7	7.692453E-3
1.478500E-7	7.392636E-3
1.479000E-7	7.255577E-3
1.479500E-7	7.358371E-3
1.480000E-7	7.563960E-3
1.480500E-7	7.641056E-3
1.481000E-7	7.572526E-3
1.481500E-7	7.529695E-3
1.482000E-7	7.521129E-3
1.482500E-7	7.401202E-3
1.483000E-7	7.101385E-3
1.483500E-7	6.724472E-3
1.484000E-7	6.296162E-3
1.484500E-7	5.773624E-3
1.485000E-7	5.336748E-3
1.485500E-7	5.139725E-3
1.486000E-7	5.148291E-3
1.486500E-7	5.396711E-3
1.487000E-7	5.944948E-3
1.487500E-7	6.544582E-3
1.488000E-7	6.964326E-3
1.488500E-7	7.324106E-3
1.489000E-7	7.692453E-3
1.489500E-7	8.000836E-3
1.490000E-7	8.283521E-3
1.490500E-7	8.540507E-3
1.491000E-7	8.471977E-3
1.491500E-7	8.035101E-3
1.492000E-7	7.632489E-3
1.492500E-7	7.306974E-3
1.493000E-7	6.827267E-3
1.493500E-7	6.270464E-3
1.494000E-7	5.962080E-3
1.494500E-7	5.876418E-3
1.495000E-7	5.842154E-3
1.495500E-7	5.876418E-3
1.496000E-7	5.919249E-3
1.496500E-7	5.850720E-3
1.497000E-7	5.833587E-3
1.497500E-7	6.124838E-3
1.498000E-7	6.587413E-3
1.498500E-7	6.827267E-3
1.499000E-7	6.801568E-3
1.499500E-7	6.775869E-3
1.500000E-7	6.895796E-3
1.500500E-7	7.049988E-3
1.501000E-7	7.092819E-3
1.501500E-7	7.109951E-3
1.502000E-7	7.272709E-3
1.502500E-7	7.658188E-3
1.503000E-7	8.163594E-3
1.503500E-7	8.686132E-3
1.504000E-7	9.148707E-3
1.504500E-7	9.508487E-3
1.505000E-7	9.808304E-3
1.505500E-7	1.022805E-2
1.506000E-7	1.061353E-2
1.506500E-7	1.061353E-2
1.507000E-7	1.038224E-2
1.507500E-7	1.025375E-2
1.508000E-7	1.005672E-2
1.508500E-7	9.619848E-3
1.509000E-7	9.234369E-3
1.509500E-7	9.011648E-3
1.510000E-7	8.643301E-3
1.510500E-7	8.146461E-3
1.511000E-7	7.838078E-3
1.511500E-7	7.718151E-3
1.512000E-7	7.529695E-3
1.512500E-7	7.281275E-3
1.513000E-7	7.067120E-3
1.513500E-7	6.861531E-3
1.514000E-7	6.630244E-3
1.514500E-7	6.501751E-3
1.515000E-7	6.493185E-3
1.515500E-7	6.476052E-3
1.516000E-7	6.373258E-3
1.516500E-7	6.270464E-3
1.517000E-7	6.338993E-3
1.517500E-7	6.587413E-3
1.518000E-7	6.818700E-3
1.518500E-7	6.844399E-3
1.519000E-7	6.690207E-3
1.519500E-7	6.424655E-3
1.520000E-7	6.082007E-3
1.520500E-7	5.722227E-3
1.521000E-7	5.405277E-3
1.521500E-7	5.105460E-3
1.522000E-7	4.737114E-3
1.522500E-7	4.411598E-3
1.523000E-7	4.480128E-3
1.523500E-7	5.105460E-3
1.524000E-7	5.944948E-3
1.524500E-7	6.775869E-3
1.525000E-7	7.769549E-3
1.525500E-7	8.908853E-3
1.526000E-7	9.842569E-3
1.526500E-7	1.045077E-2
1.527000E-7	1.087051E-2
1.527500E-7	1.100757E-2
1.528000E-7	1.069062E-2
1.528500E-7	1.006529E-2
1.529000E-7	9.397127E-3
1.529500E-7	8.754662E-3
1.530000E-7	8.103630E-3
1.530500E-7	7.529695E-3
1.531000E-7	7.204179E-3
1.531500E-7	7.135650E-3
1.532000E-7	7.195613E-3
1.532500E-7	7.358371E-3
1.533000E-7	7.623923E-3
1.533500E-7	7.829512E-3
1.534000E-7	7.820946E-3
1.534500E-7	7.846644E-3
1.535000E-7	8.017968E-3
1.535500E-7	8.069366E-3
1.536000E-7	7.880909E-3
1.536500E-7	7.649622E-3
1.537000E-7	7.418334E-3
1.537500E-7	7.144216E-3
1.538000E-7	6.955760E-3
1.538500E-7	6.998591E-3
1.539000E-7	7.187047E-3
1.539500E-7	7.384070E-3
1.540000E-7	7.589658E-3
1.540500E-7	7.855211E-3
1.541000E-7	8.120763E-3
1.541500E-7	8.292087E-3
1.542000E-7	8.317785E-3
1.542500E-7	8.223557E-3
1.543000E-7	7.958005E-3
1.543500E-7	7.589658E-3
1.544000E-7	7.229878E-3
1.544500E-7	6.801568E-3
1.545000E-7	6.261897E-3
1.545500E-7	5.867852E-3
1.546000E-7	5.645131E-3
1.546500E-7	5.388145E-3
1.547000E-7	5.216821E-3
1.547500E-7	5.456675E-3
1.548000E-7	5.944948E-3
1.548500E-7	6.441788E-3
1.549000E-7	7.024289E-3
1.549500E-7	7.683887E-3
1.550000E-7	8.189292E-3
1.550500E-7	8.634735E-3
1.551000E-7	9.123008E-3
1.551500E-7	9.328597E-3
1.552000E-7	9.020214E-3
1.552500E-7	8.557639E-3
1.553000E-7	8.172160E-3
1.553500E-7	7.546827E-3
1.554000E-7	6.647376E-3
1.554500E-7	5.936382E-3
1.555000E-7	5.542337E-3
1.555500E-7	5.191122E-3
1.556000E-7	5.002666E-3
1.556500E-7	5.156858E-3
1.557000E-7	5.499506E-3
1.557500E-7	5.850720E-3
1.558000E-7	6.304728E-3
1.558500E-7	6.861531E-3
1.559000E-7	7.452599E-3
1.559500E-7	7.949439E-3
1.560000E-7	8.352050E-3
1.560500E-7	8.651867E-3
1.561000E-7	8.806059E-3
1.561500E-7	8.660434E-3
1.562000E-7	8.266388E-3
1.562500E-7	7.898042E-3
1.563000E-7	7.692453E-3
1.563500E-7	7.649622E-3
1.564000E-7	7.486864E-3
1.564500E-7	6.912929E-3
1.565000E-7	6.219066E-3
1.565500E-7	6.047742E-3
1.566000E-7	6.253331E-3
1.566500E-7	6.219066E-3
1.567000E-7	5.944948E-3
1.567500E-7	5.799323E-3
1.568000E-7	5.790756E-3
1.568500E-7	5.884985E-3
1.569000E-7	6.201934E-3
1.569500E-7	6.441788E-3
1.570000E-7	6.330427E-3
1.570500E-7	6.253331E-3
1.571000E-7	6.458920E-3
1.571500E-7	6.570281E-3
1.572000E-7	6.441788E-3
1.572500E-7	6.381824E-3
1.573000E-7	6.321861E-3
1.573500E-7	6.099140E-3
1.574000E-7	6.056309E-3
1.574500E-7	6.407523E-3
1.575000E-7	6.638810E-3
1.575500E-7	6.595979E-3
1.576000E-7	6.818700E-3
1.576500E-7	7.366937E-3
1.577000E-7	7.778115E-3
1.577500E-7	8.009402E-3
1.578000E-7	8.232123E-3
1.578500E-7	8.334918E-3
1.579000E-7	8.292087E-3
1.579500E-7	8.223557E-3
1.580000E-7	8.026535E-3
1.580500E-7	7.709585E-3
1.581000E-7	7.478298E-3
1.581500E-7	7.418334E-3
1.582000E-7	7.435467E-3
1.582500E-7	7.546827E-3
1.583000E-7	7.675320E-3
1.583500E-7	7.778115E-3
1.584000E-7	8.103630E-3
1.584500E-7	8.617603E-3
1.585000E-7	8.917420E-3
1.585500E-7	8.994515E-3
1.586000E-7	9.311465E-3
1.586500E-7	9.799738E-3
1.587000E-7	9.996761E-3
1.587500E-7	9.928231E-3
1.588000E-7	9.945364E-3
1.588500E-7	9.979628E-3
1.589000E-7	9.834003E-3
1.589500E-7	9.662679E-3
1.590000E-7	9.517054E-3
1.590500E-7	9.234369E-3
1.591000E-7	8.797493E-3
1.591500E-7	8.480543E-3
1.592000E-7	8.386315E-3
1.592500E-7	8.283521E-3
1.593000E-7	7.880909E-3
1.593500E-7	7.469732E-3
1.594000E-7	7.418334E-3
1.594500E-7	7.521129E-3
1.595000E-7	7.384070E-3
1.595500E-7	7.178481E-3
1.596000E-7	7.144216E-3
1.596500E-7	7.075686E-3
1.597000E-7	6.990024E-3
1.597500E-7	7.041422E-3
1.598000E-7	7.041422E-3
1.598500E-7	6.921495E-3
1.599000E-7	6.964326E-3
1.599500E-7	7.212746E-3
1.600000E-7	7.469732E-3
1.600500E-7	7.623923E-3
1.601000E-7	7.683887E-3
1.601500E-7	7.683887E-3
1.602000E-7	7.735284E-3
1.602500E-7	7.735284E-3
1.603000E-7	7.546827E-3
1.603500E-7	7.281275E-3
1.604000E-7	6.972892E-3
1.604500E-7	6.544582E-3
1.605000E-7	6.167669E-3
1.605500E-7	5.979213E-3
1.606000E-7	5.705094E-3
1.606500E-7	5.379579E-3
1.607000E-7	5.371013E-3
1.607500E-7	5.679396E-3
1.608000E-7	5.962080E-3
1.608500E-7	6.159103E-3
1.609000E-7	6.484619E-3
1.609500E-7	6.818700E-3
1.610000E-7	6.972892E-3
1.610500E-7	7.015723E-3
1.611000E-7	7.075686E-3
1.611500E-7	7.075686E-3
1.612000E-7	6.912929E-3
1.612500E-7	6.724472E-3
1.613000E-7	6.630244E-3
1.613500E-7	6.621678E-3
1.614000E-7	6.510317E-3
1.614500E-7	6.321861E-3
1.615000E-7	6.287596E-3
1.615500E-7	6.398957E-3
1.616000E-7	6.364692E-3
1.616500E-7	6.287596E-3
1.617000E-7	6.604545E-3
1.617500E-7	6.972892E-3
1.618000E-7	7.015723E-3
1.618500E-7	7.032855E-3
1.619000E-7	7.298408E-3
1.619500E-7	7.581092E-3
1.620000E-7	7.880909E-3
1.620500E-7	8.232123E-3
1.621000E-7	8.369183E-3
1.621500E-7	8.403448E-3
1.622000E-7	8.669000E-3
1.622500E-7	8.840324E-3
1.623000E-7	8.711831E-3
1.623500E-7	8.720397E-3
1.624000E-7	8.883155E-3
1.624500E-7	8.754662E-3
1.625000E-7	8.497676E-3
1.625500E-7	8.514808E-3
1.626000E-7	8.557639E-3
1.626500E-7	8.497676E-3
1.627000E-7	8.626169E-3
1.627500E-7	8.883155E-3
1.628000E-7	9.003082E-3
1.628500E-7	8.985949E-3
1.629000E-7	8.943118E-3
1.629500E-7	8.848890E-3
1.630000E-7	8.686132E-3
1.630500E-7	8.360616E-3
1.631000E-7	7.915174E-3
1.631500E-7	7.478298E-3
1.632000E-7	6.981458E-3
1.632500E-7	6.347559E-3
1.633000E-7	5.816455E-3
1.633500E-7	5.473807E-3
1.634000E-7	5.259652E-3
1.634500E-7	5.208255E-3
1.635000E-7	5.362446E-3
1.635500E-7	5.585168E-3
1.636000E-7	5.936382E-3
1.636500E-7	6.536016E-3
1.637000E-7	7.161348E-3
1.637500E-7	7.615357E-3
1.638000E-7	7.940873E-3
1.638500E-7	8.069366E-3
1.639000E-7	7.803813E-3
1.639500E-7	7.366937E-3
1.640000E-7	7.041422E-3
1.640500E-7	6.690207E-3
1.641000E-7	6.107706E-3
1.641500E-7	5.559469E-3
1.642000E-7	5.216821E-3
1.642500E-7	4.968401E-3
1.643000E-7	4.848474E-3
1.643500E-7	5.028365E-3
1.644000E-7	5.345314E-3
1.644500E-7	5.576601E-3
1.645000E-7	5.867852E-3
1.645500E-7	6.287596E-3
1.646000E-7	6.595979E-3
1.646500E-7	6.733038E-3
1.647000E-7	6.784436E-3
1.647500E-7	6.741605E-3
1.648000E-7	6.698774E-3
1.648500E-7	6.698774E-3
1.649000E-7	6.578847E-3
1.649500E-7	6.398957E-3
1.650000E-7	6.407523E-3
1.650500E-7	6.578847E-3
1.651000E-7	6.844399E-3
1.651500E-7	7.221312E-3
1.652000E-7	7.623923E-3
1.652500E-7	7.923740E-3
1.653000E-7	8.223557E-3
1.653500E-7	8.557639E-3
1.654000E-7	8.788927E-3
1.654500E-7	9.011648E-3
1.655000E-7	9.208670E-3
1.655500E-7	9.217237E-3
1.656000E-7	9.251501E-3
1.656500E-7	9.439958E-3
1.657000E-7	9.379994E-3
1.657500E-7	9.028780E-3
1.658000E-7	8.908853E-3
1.658500E-7	8.943118E-3
1.659000E-7	8.591904E-3
1.659500E-7	8.000836E-3
1.660000E-7	7.563960E-3
1.660500E-7	7.135650E-3
1.661000E-7	6.690207E-3
1.661500E-7	6.390390E-3
1.662000E-7	6.099140E-3
1.662500E-7	5.747925E-3
1.663000E-7	5.542337E-3
1.663500E-7	5.525204E-3
1.664000E-7	5.705094E-3
1.664500E-7	6.064875E-3
1.665000E-7	6.313295E-3
1.665500E-7	6.476052E-3
1.666000E-7	6.895796E-3
1.666500E-7	7.495430E-3
1.667000E-7	7.812380E-3
1.667500E-7	7.880909E-3
1.668000E-7	7.923740E-3
1.668500E-7	7.949439E-3
1.669000E-7	7.983704E-3
1.669500E-7	8.035101E-3
1.670000E-7	7.940873E-3
1.670500E-7	7.752416E-3
1.671000E-7	7.718151E-3
1.671500E-7	7.683887E-3
1.672000E-7	7.469732E-3
1.672500E-7	7.169915E-3
1.673000E-7	6.835833E-3
1.673500E-7	6.398957E-3
1.674000E-7	6.013478E-3
1.674500E-7	5.790756E-3
1.675000E-7	5.533770E-3
1.675500E-7	5.148291E-3
1.676000E-7	4.848474E-3
1.676500E-7	4.762812E-3
1.677000E-7	4.882739E-3
1.677500E-7	5.131159E-3
1.678000E-7	5.439542E-3
1.678500E-7	5.713661E-3
1.679000E-7	6.030610E-3
1.679500E-7	6.476052E-3
1.680000E-7	7.007157E-3
1.680500E-7	7.589658E-3
1.681000E-7	8.172160E-3
1.681500E-7	8.549073E-3
1.682000E-7	8.677566E-3
1.682500E-7	8.857456E-3
1.683000E-7	9.088744E-3
1.683500E-7	8.968817E-3
1.684000E-7	8.634735E-3
1.684500E-7	8.437712E-3
1.685000E-7	8.189292E-3
1.685500E-7	7.752416E-3
1.686000E-7	7.452599E-3
1.686500E-7	7.272709E-3
1.687000E-7	6.861531E-3
1.687500E-7	6.450354E-3
1.688000E-7	6.321861E-3
1.688500E-7	6.321861E-3
1.689000E-7	6.287596E-3
1.689500E-7	6.296162E-3
1.690000E-7	6.313295E-3
1.690500E-7	6.261897E-3
1.691000E-7	6.124838E-3
1.691500E-7	5.979213E-3
1.692000E-7	5.962080E-3
1.692500E-7	6.176235E-3
1.693000E-7	6.467486E-3
1.693500E-7	6.664509E-3
1.694000E-7	6.818700E-3
1.694500E-7	7.144216E-3
1.695000E-7	7.743850E-3
1.695500E-7	8.309219E-3
1.696000E-7	8.489110E-3
1.696500E-7	8.412014E-3
1.697000E-7	8.369183E-3
1.697500E-7	8.163594E-3
1.698000E-7	7.503996E-3
1.698500E-7	6.647376E-3
1.699000E-7	5.867852E-3
1.699500E-7	5.002666E-3
1.700000E-7	4.146046E-3
1.700500E-7	3.640640E-3
1.701000E-7	3.460750E-3
1.701500E-7	3.417919E-3
1.702000E-7	3.640640E-3
1.702500E-7	4.146046E-3
1.703000E-7	4.660018E-3
1.703500E-7	5.114027E-3
1.704000E-7	5.585168E-3
1.704500E-7	5.807889E-3
1.705000E-7	5.679396E-3
1.705500E-7	5.508072E-3
1.706000E-7	5.259652E-3
1.706500E-7	4.728548E-3
1.707000E-7	4.248840E-3
1.707500E-7	4.103215E-3
1.708000E-7	3.966156E-3
1.708500E-7	3.734868E-3
1.709000E-7	3.889060E-3
1.709500E-7	4.488694E-3
1.710000E-7	5.182556E-3
1.710500E-7	5.927816E-3
1.711000E-7	6.887230E-3
1.711500E-7	7.880909E-3
1.712000E-7	8.720397E-3
1.712500E-7	9.371428E-3
1.713000E-7	9.799738E-3
1.713500E-7	9.919665E-3
1.714000E-7	9.774040E-3
1.714500E-7	9.542752E-3
1.715000E-7	9.225803E-3
1.715500E-7	8.780360E-3
1.716000E-7	8.283521E-3
1.716500E-7	7.855211E-3
1.717000E-7	7.503996E-3
1.717500E-7	7.178481E-3
1.718000E-7	6.964326E-3
1.718500E-7	6.895796E-3
1.719000E-7	6.784436E-3
1.719500E-7	6.364692E-3
1.720000E-7	5.833587E-3
1.720500E-7	5.585168E-3
1.721000E-7	5.490939E-3
1.721500E-7	5.105460E-3
1.722000E-7	4.548657E-3
1.722500E-7	4.308804E-3
1.723000E-7	4.283105E-3
1.723500E-7	4.214575E-3
1.724000E-7	4.274539E-3
1.724500E-7	4.608621E-3
1.725000E-7	4.985534E-3
1.725500E-7	5.285351E-3
1.726000E-7	5.619432E-3
1.726500E-7	5.936382E-3
1.727000E-7	6.082007E-3
1.727500E-7	6.150537E-3
1.728000E-7	6.210500E-3
1.728500E-7	6.124838E-3
1.729000E-7	5.816455E-3
1.729500E-7	5.456675E-3
1.730000E-7	5.199689E-3
1.730500E-7	5.079762E-3
1.731000E-7	5.122593E-3
1.731500E-7	5.328182E-3
1.732000E-7	5.593734E-3
1.732500E-7	5.867852E-3
1.733000E-7	6.296162E-3
1.733500E-7	6.810134E-3
1.734000E-7	7.247010E-3
1.734500E-7	7.572526E-3
1.735000E-7	7.889475E-3
1.735500E-7	8.206425E-3
1.736000E-7	8.454845E-3
1.736500E-7	8.549073E-3
1.737000E-7	8.454845E-3
1.737500E-7	8.129329E-3
1.738000E-7	7.641056E-3
1.738500E-7	7.195613E-3
1.739000E-7	6.887230E-3
1.739500E-7	6.655943E-3
1.740000E-7	6.518883E-3
1.740500E-7	6.338993E-3
1.741000E-7	6.056309E-3
1.741500E-7	5.962080E-3
1.742000E-7	6.227633E-3
1.742500E-7	6.450354E-3
1.743000E-7	6.416089E-3
1.743500E-7	6.501751E-3
1.744000E-7	6.724472E-3
1.744500E-7	6.570281E-3
1.745000E-7	6.039176E-3
1.745500E-7	5.696528E-3
1.746000E-7	5.645131E-3
1.746500E-7	5.516638E-3
1.747000E-7	5.311049E-3
1.747500E-7	5.242520E-3
1.748000E-7	5.328182E-3
1.748500E-7	5.542337E-3
1.749000E-7	5.739359E-3
1.749500E-7	5.799323E-3
1.750000E-7	5.876418E-3
1.750500E-7	6.133404E-3
1.751000E-7	6.381824E-3
1.751500E-7	6.467486E-3
1.752000E-7	6.501751E-3
1.752500E-7	6.450354E-3
1.753000E-7	6.313295E-3
1.753500E-7	6.261897E-3
1.754000E-7	6.219066E-3
1.754500E-7	5.927816E-3
1.755000E-7	5.722227E-3
1.755500E-7	5.859286E-3
1.756000E-7	5.944948E-3
1.756500E-7	5.825021E-3
1.757000E-7	5.807889E-3
1.757500E-7	5.910683E-3
1.758000E-7	5.987779E-3
1.758500E-7	6.082007E-3
1.759000E-7	6.116272E-3
1.759500E-7	6.056309E-3
1.760000E-7	6.056309E-3
1.760500E-7	6.022044E-3
1.761000E-7	5.782190E-3
1.761500E-7	5.602300E-3
1.762000E-7	5.602300E-3
1.762500E-7	5.559469E-3
1.763000E-7	5.448108E-3
1.763500E-7	5.422410E-3
1.764000E-7	5.490939E-3
1.764500E-7	5.619432E-3
1.765000E-7	5.722227E-3
1.765500E-7	5.722227E-3
1.766000E-7	5.902117E-3
1.766500E-7	6.373258E-3
1.767000E-7	6.690207E-3
1.767500E-7	6.827267E-3
1.768000E-7	7.187047E-3
1.768500E-7	7.623923E-3
1.769000E-7	7.743850E-3
1.769500E-7	7.718151E-3
1.770000E-7	7.701019E-3
1.770500E-7	7.538261E-3
1.771000E-7	7.272709E-3
1.771500E-7	6.878664E-3
1.772000E-7	6.150537E-3
1.772500E-7	5.482373E-3
1.773000E-7	5.242520E-3
1.773500E-7	4.976967E-3
1.774000E-7	4.471561E-3
1.774500E-7	4.163178E-3
1.775000E-7	4.103215E-3
1.775500E-7	4.034685E-3
1.776000E-7	4.120347E-3
1.776500E-7	4.377333E-3
1.777000E-7	4.411598E-3
1.777500E-7	4.291671E-3
1.778000E-7	4.411598E-3
1.778500E-7	4.514392E-3
1.779000E-7	4.291671E-3
1.779500E-7	3.957589E-3
1.780000E-7	3.640640E-3
1.780500E-7	3.160933E-3
1.781000E-7	2.655527E-3
1.781500E-7	2.312879E-3
1.782000E-7	2.115856E-3
1.782500E-7	2.201518E-3
1.783000E-7	2.612696E-3
1.783500E-7	3.083837E-3
1.784000E-7	3.606375E-3
1.784500E-7	4.480128E-3
1.785000E-7	5.653697E-3
1.785500E-7	6.758737E-3
1.786000E-7	7.778115E-3
1.786500E-7	8.754662E-3
1.787000E-7	9.491355E-3
1.787500E-7	9.902533E-3
1.788000E-7	1.002246E-2
1.788500E-7	9.808304E-3
1.789000E-7	9.182972E-3
1.789500E-7	8.334918E-3
1.790000E-7	7.409768E-3
1.790500E-7	6.510317E-3
1.791000E-7	5.765058E-3
1.791500E-7	5.251086E-3
1.792000E-7	4.908438E-3
1.792500E-7	4.634319E-3
1.793000E-7	4.565790E-3
1.793500E-7	4.839908E-3
1.794000E-7	5.448108E-3
1.794500E-7	6.047742E-3
1.795000E-7	6.416089E-3
1.795500E-7	6.673075E-3
1.796000E-7	7.007157E-3
1.796500E-7	7.289841E-3
1.797000E-7	7.341239E-3
1.797500E-7	7.324106E-3
1.798000E-7	7.332672E-3
1.798500E-7	7.238444E-3
1.799000E-7	7.109951E-3
1.799500E-7	7.067120E-3
1.800000E-7	7.015723E-3
1.800500E-7	6.912929E-3
1.801000E-7	6.801568E-3
1.801500E-7	6.527450E-3
1.802000E-7	6.167669E-3
1.802500E-7	5.884985E-3
1.803000E-7	5.508072E-3
1.803500E-7	4.951269E-3
1.804000E-7	4.548657E-3
1.804500E-7	4.325936E-3
1.805000E-7	4.094649E-3
1.805500E-7	4.034685E-3
1.806000E-7	4.283105E-3
1.806500E-7	4.660018E-3
1.807000E-7	5.011232E-3
1.807500E-7	5.353880E-3
1.808000E-7	5.782190E-3
1.808500E-7	6.330427E-3
1.809000E-7	6.741605E-3
1.809500E-7	6.964326E-3
1.810000E-7	7.324106E-3
1.810500E-7	7.735284E-3
1.811000E-7	7.760982E-3
1.811500E-7	7.658188E-3
1.812000E-7	7.795247E-3
1.812500E-7	7.812380E-3
1.813000E-7	7.512563E-3
1.813500E-7	7.298408E-3
1.814000E-7	7.204179E-3
1.814500E-7	7.092819E-3
1.815000E-7	7.101385E-3
1.815500E-7	7.092819E-3
1.816000E-7	6.921495E-3
1.816500E-7	6.878664E-3
1.817000E-7	7.024289E-3
1.817500E-7	7.118517E-3
1.818000E-7	7.306974E-3
1.818500E-7	7.743850E-3
1.819000E-7	8.112197E-3
1.819500E-7	8.403448E-3
1.820000E-7	8.788927E-3
1.820500E-7	9.011648E-3
1.821000E-7	8.874589E-3
1.821500E-7	8.643301E-3
1.822000E-7	8.437712E-3
1.822500E-7	8.112197E-3
1.823000E-7	7.555394E-3
1.823500E-7	6.741605E-3
1.824000E-7	5.833587E-3
1.824500E-7	5.131159E-3
1.825000E-7	4.694283E-3
1.825500E-7	4.308804E-3
1.826000E-7	4.094649E-3
1.826500E-7	4.240274E-3
1.827000E-7	4.505826E-3
1.827500E-7	4.745680E-3
1.828000E-7	5.242520E-3
1.828500E-7	5.919249E-3
1.829000E-7	6.373258E-3
1.829500E-7	6.775869E-3
1.830000E-7	7.452599E-3
1.830500E-7	7.949439E-3
1.831000E-7	7.846644E-3
1.831500E-7	7.658188E-3
1.832000E-7	7.606791E-3
1.832500E-7	7.187047E-3
1.833000E-7	6.416089E-3
1.833500E-7	5.799323E-3
1.834000E-7	5.302483E-3
1.834500E-7	4.728548E-3
1.835000E-7	4.368767E-3
1.835500E-7	4.274539E-3
1.836000E-7	4.223142E-3
1.836500E-7	4.300237E-3
1.837000E-7	4.600055E-3
1.837500E-7	5.002666E-3
1.838000E-7	5.559469E-3
1.838500E-7	6.330427E-3
1.839000E-7	7.075686E-3
1.839500E-7	7.666754E-3
1.840000E-7	8.137895E-3
1.840500E-7	8.326352E-3
1.841000E-7	8.189292E-3
1.841500E-7	7.958005E-3
1.842000E-7	7.606791E-3
1.842500E-7	7.075686E-3
1.843000E-7	6.655943E-3
1.843500E-7	6.253331E-3
1.844000E-7	5.516638E-3
1.844500E-7	4.685717E-3
1.845000E-7	4.197443E-3
1.845500E-7	3.803398E-3
1.846000E-7	3.297992E-3
1.846500E-7	3.049572E-3
1.847000E-7	3.178065E-3
1.847500E-7	3.366522E-3
1.848000E-7	3.606375E-3
1.848500E-7	3.914758E-3
1.849000E-7	4.077516E-3
1.849500E-7	4.086082E-3
1.850000E-7	4.180311E-3
1.850500E-7	4.163178E-3
1.851000E-7	3.846229E-3
1.851500E-7	3.537846E-3
1.852000E-7	3.417919E-3
1.852500E-7	3.238029E-3
1.853000E-7	2.929645E-3
1.853500E-7	2.809719E-3
1.854000E-7	2.921079E-3
1.854500E-7	2.955344E-3
1.855000E-7	2.835417E-3
1.855500E-7	2.835417E-3
1.856000E-7	2.981043E-3
1.856500E-7	3.041006E-3
1.857000E-7	3.032440E-3
1.857500E-7	3.186631E-3
1.858000E-7	3.460750E-3
1.858500E-7	3.537846E-3
1.859000E-7	3.435051E-3
1.859500E-7	3.503581E-3
1.860000E-7	3.829096E-3
1.860500E-7	4.180311E-3
1.861000E-7	4.462995E-3
1.861500E-7	4.771379E-3
1.862000E-7	5.028365E-3
1.862500E-7	5.079762E-3
1.863000E-7	5.131159E-3
1.863500E-7	5.199689E-3
1.864000E-7	5.088328E-3
1.864500E-7	4.951269E-3
1.865000E-7	4.951269E-3
1.865500E-7	4.814210E-3
1.866000E-7	4.471561E-3
1.866500E-7	4.343068E-3
1.867000E-7	4.308804E-3
1.867500E-7	4.120347E-3
1.868000E-7	4.051818E-3
1.868500E-7	4.240274E-3
1.869000E-7	4.308804E-3
1.869500E-7	4.300237E-3
1.870000E-7	4.480128E-3
1.870500E-7	4.677150E-3
1.871000E-7	4.814210E-3
1.871500E-7	5.096894E-3
1.872000E-7	5.328182E-3
1.872500E-7	5.353880E-3
1.873000E-7	5.525204E-3
1.873500E-7	5.944948E-3
1.874000E-7	6.244765E-3
1.874500E-7	6.458920E-3
1.875000E-7	6.741605E-3
1.875500E-7	6.955760E-3
1.876000E-7	6.972892E-3
1.876500E-7	6.955760E-3
1.877000E-7	6.887230E-3
1.877500E-7	6.715906E-3
1.878000E-7	6.484619E-3
1.878500E-7	6.116272E-3
1.879000E-7	5.508072E-3
1.879500E-7	4.857041E-3
1.880000E-7	4.385899E-3
1.880500E-7	4.068950E-3
1.881000E-7	3.734868E-3
1.881500E-7	3.546412E-3
1.882000E-7	3.683471E-3
1.882500E-7	3.966156E-3
1.883000E-7	4.163178E-3
1.883500E-7	4.471561E-3
1.884000E-7	5.079762E-3
1.884500E-7	5.636565E-3
1.885000E-7	5.782190E-3
1.885500E-7	5.739359E-3
1.886000E-7	5.910683E-3
1.886500E-7	6.099140E-3
1.887000E-7	5.944948E-3
1.887500E-7	5.585168E-3
1.888000E-7	5.216821E-3
1.888500E-7	4.814210E-3
1.889000E-7	4.394466E-3
1.889500E-7	4.086082E-3
1.890000E-7	3.871927E-3
1.890500E-7	3.777699E-3
1.891000E-7	3.820530E-3
1.891500E-7	3.897626E-3
1.892000E-7	3.991854E-3
1.892500E-7	4.171744E-3
1.893000E-7	4.274539E-3
1.893500E-7	4.368767E-3
1.894000E-7	4.711415E-3
1.894500E-7	5.011232E-3
1.895000E-7	4.865607E-3
1.895500E-7	4.565790E-3
1.896000E-7	4.480128E-3
1.896500E-7	4.308804E-3
1.897000E-7	4.034685E-3
1.897500E-7	3.940457E-3
1.898000E-7	3.906192E-3
1.898500E-7	3.726302E-3
1.899000E-7	3.734868E-3
1.899500E-7	4.077516E-3
1.900000E-7	4.428730E-3
1.900500E-7	4.754246E-3
1.901000E-7	5.156858E-3
1.901500E-7	5.610866E-3
1.902000E-7	6.090573E-3
1.902500E-7	6.613112E-3
1.903000E-7	6.938627E-3
1.903500E-7	7.049988E-3
1.904000E-7	7.135650E-3
1.904500E-7	7.109951E-3
1.905000E-7	6.810134E-3
1.905500E-7	6.450354E-3
1.906000E-7	6.176235E-3
1.906500E-7	5.962080E-3
1.907000E-7	5.799323E-3
1.907500E-7	5.705094E-3
1.908000E-7	5.610866E-3
1.908500E-7	5.559469E-3
1.909000E-7	5.542337E-3
1.909500E-7	5.576601E-3
1.910000E-7	5.799323E-3
1.910500E-7	6.124838E-3
1.911000E-7	6.261897E-3
1.911500E-7	6.296162E-3
1.912000E-7	6.561714E-3
1.912500E-7	6.844399E-3
1.913000E-7	6.698774E-3
1.913500E-7	6.424655E-3
1.914000E-7	6.373258E-3
1.914500E-7	6.338993E-3
1.915000E-7	6.090573E-3
1.915500E-7	5.790756E-3
1.916000E-7	5.439542E-3
1.916500E-7	4.985534E-3
1.917000E-7	4.642886E-3
1.917500E-7	4.445863E-3
1.918000E-7	4.180311E-3
1.918500E-7	3.906192E-3
1.919000E-7	3.837663E-3
1.919500E-7	3.794832E-3
1.920000E-7	3.632074E-3
1.920500E-7	3.606375E-3
1.921000E-7	3.589243E-3
1.921500E-7	3.383654E-3
1.922000E-7	3.409353E-3
1.922500E-7	3.794832E-3
1.923000E-7	3.966156E-3
1.923500E-7	3.966156E-3
1.924000E-7	4.291671E-3
1.924500E-7	4.565790E-3
1.925000E-7	4.445863E-3
1.925500E-7	4.480128E-3
1.926000E-7	4.745680E-3
1.926500E-7	4.702849E-3
1.927000E-7	4.471561E-3
1.927500E-7	4.471561E-3
1.928000E-7	4.505826E-3
1.928500E-7	4.377333E-3
1.929000E-7	4.265973E-3
1.929500E-7	4.180311E-3
1.930000E-7	4.043251E-3
1.930500E-7	3.940457E-3
1.931000E-7	3.880494E-3
1.931500E-7	3.743434E-3
1.932000E-7	3.495015E-3
1.932500E-7	3.152367E-3
1.933000E-7	2.895381E-3
1.933500E-7	2.826851E-3
1.934000E-7	2.741189E-3
1.934500E-7	2.689792E-3
1.935000E-7	2.912513E-3
1.935500E-7	3.332257E-3
1.936000E-7	3.777699E-3
1.936500E-7	4.308804E-3
1.937000E-7	4.839908E-3
1.937500E-7	5.276784E-3
1.938000E-7	5.859286E-3
1.938500E-7	6.424655E-3
1.939000E-7	6.544582E-3
1.939500E-7	6.441788E-3
1.940000E-7	6.510317E-3
1.940500E-7	6.553148E-3
1.941000E-7	6.390390E-3
1.941500E-7	6.270464E-3
1.942000E-7	6.176235E-3
1.942500E-7	6.073441E-3
1.943000E-7	6.159103E-3
1.943500E-7	6.416089E-3
1.944000E-7	6.595979E-3
1.944500E-7	6.681641E-3
1.945000E-7	6.655943E-3
1.945500E-7	6.467486E-3
1.946000E-7	6.201934E-3
1.946500E-7	5.962080E-3
1.947000E-7	5.696528E-3
1.947500E-7	5.439542E-3
1.948000E-7	5.165424E-3
1.948500E-7	4.702849E-3
1.949000E-7	4.180311E-3
1.949500E-7	3.829096E-3
1.950000E-7	3.563544E-3
1.950500E-7	3.340823E-3
1.951000E-7	3.203764E-3
1.951500E-7	3.160933E-3
1.952000E-7	3.238029E-3
1.952500E-7	3.486448E-3
1.953000E-7	3.692037E-3
1.953500E-7	3.769133E-3
1.954000E-7	3.889060E-3
1.954500E-7	4.086082E-3
1.955000E-7	4.265973E-3
1.955500E-7	4.462995E-3
1.956000E-7	4.814210E-3
1.956500E-7	5.156858E-3
1.957000E-7	5.285351E-3
1.957500E-7	5.131159E-3
1.958000E-7	4.857041E-3
1.958500E-7	4.617187E-3
1.959000E-7	4.394466E-3
1.959500E-7	4.146046E-3
1.960000E-7	3.846229E-3
1.960500E-7	3.503581E-3
1.961000E-7	3.383654E-3
1.961500E-7	3.563544E-3
1.962000E-7	3.692037E-3
1.962500E-7	3.597809E-3
1.963000E-7	3.700603E-3
1.963500E-7	4.146046E-3
1.964000E-7	4.565790E-3
1.964500E-7	4.882739E-3
1.965000E-7	5.165424E-3
1.965500E-7	5.336748E-3
1.966000E-7	5.413844E-3
1.966500E-7	5.490939E-3
1.967000E-7	5.550903E-3
1.967500E-7	5.568035E-3
1.968000E-7	5.559469E-3
1.968500E-7	5.670830E-3
1.969000E-7	6.047742E-3
1.969500E-7	6.553148E-3
1.970000E-7	6.981458E-3
1.970500E-7	7.469732E-3
1.971000E-7	8.043667E-3
1.971500E-7	8.420580E-3
1.972000E-7	8.711831E-3
1.972500E-7	9.054479E-3
1.973000E-7	9.114442E-3
1.973500E-7	8.857456E-3
1.974000E-7	8.591904E-3
1.974500E-7	8.163594E-3
1.975000E-7	7.375503E-3
1.975500E-7	6.664509E-3
1.976000E-7	6.167669E-3
1.976500E-7	5.645131E-3
1.977000E-7	5.302483E-3
1.977500E-7	5.259652E-3
1.978000E-7	5.242520E-3
1.978500E-7	5.336748E-3
1.979000E-7	5.705094E-3
1.979500E-7	6.030610E-3
1.980000E-7	6.287596E-3
1.980500E-7	6.613112E-3
1.981000E-7	6.681641E-3
1.981500E-7	6.398957E-3
1.982000E-7	6.261897E-3
1.982500E-7	6.133404E-3
1.983000E-7	5.627999E-3
1.983500E-7	5.131159E-3
1.984000E-7	4.882739E-3
1.984500E-7	4.445863E-3
1.985000E-7	3.931891E-3
1.985500E-7	3.940457E-3
1.986000E-7	4.137480E-3
1.986500E-7	4.068950E-3
1.987000E-7	4.120347E-3
1.987500E-7	4.428730E-3
1.988000E-7	4.531525E-3
1.988500E-7	4.428730E-3
1.989000E-7	4.437297E-3
1.989500E-7	4.420164E-3
1.990000E-7	4.214575E-3
1.990500E-7	4.086082E-3
1.991000E-7	4.043251E-3
1.991500E-7	3.880494E-3
1.992000E-7	3.769133E-3
1.992500E-7	3.803398E-3
1.993000E-7	3.829096E-3
1.993500E-7	3.897626E-3
1.994000E-7	4.240274E-3
1.994500E-7	4.779945E-3
1.995000E-7	5.276784E-3
1.995500E-7	5.825021E-3
1.996000E-7	6.398957E-3
1.996500E-7	6.844399E-3
1.997000E-7	7.272709E-3
1.997500E-7	7.786681E-3
1.998000E-7	8.137895E-3
1.998500E-7	8.146461E-3
1.999000E-7	8.017968E-3
1.999500E-7	7.872343E-3
2.000000E-7	7.606791E-3
